Energy 	Counts
0.0004,0
0.03018,0
0.05996,0
0.08974,0
0.11952,0
0.1493,0
0.17908,0
0.20886,0
0.23864,0
0.26842,0
0.2982,0
0.32798,0
0.35776,5
0.38754,6
0.41732,23
0.4471,22
0.47688,16
0.50666,23
0.53644,20
0.56622,16
0.596,16
0.62578,11
0.65556,17
0.68534,19
0.71512,20
0.7449,12
0.77468,12
0.80446,17
0.83424,16
0.86402,18
0.8938,15
0.92358,15
0.95336,13
0.98314,11
1.01292,12
1.0427,7
1.07248,13
1.10226,15
1.13204,12
1.16182,16
1.1916,10
1.22138,10
1.25116,12
1.28094,10
1.31072,13
1.3405,9
1.37028,11
1.40006,11
1.42984,6
1.45962,11
1.4894,7
1.51918,8
1.54896,7
1.57874,14
1.60852,6
1.6383,7
1.66808,7
1.69786,6
1.72764,9
1.75742,11
1.7872,4
1.81698,5
1.84676,10
1.87654,8
1.90632,6
1.9361,10
1.96588,7
1.99566,7
2.02544,11
2.05522,8
2.085,12
2.11478,11
2.14456,16
2.17434,17
2.20412,11
2.2339,15
2.26368,11
2.29346,6
2.32324,6
2.35302,7
2.3828,6
2.41258,10
2.44236,16
2.47214,7
2.50192,8
2.5317,4
2.56148,3
2.59126,11
2.62104,11
2.65082,8
2.6806,16
2.71038,12
2.74016,10
2.76994,14
2.79972,16
2.8295,13
2.85928,16
2.88906,28
2.91884,16
2.94862,31
2.9784,25
3.00818,17
3.03796,22
3.06774,17
3.09752,14
3.1273,13
3.15708,10
3.18686,11
3.21664,4
3.24642,8
3.2762,10
3.30598,8
3.33576,7
3.36554,7
3.39532,8
3.4251,6
3.45488,3
3.48466,6
3.51444,5
3.54422,5
3.574,2
3.60378,5
3.63356,4
3.66334,6
3.69312,8
3.7229,3
3.75268,4
3.78246,6
3.81224,4
3.84202,5
3.8718,6
3.90158,5
3.93136,7
3.96114,9
3.99092,8
4.0207,4
4.05048,3
4.08026,6
4.11004,8
4.13982,8
4.1696,5
4.19938,7
4.22916,8
4.25894,4
4.28872,6
4.3185,5
4.34828,5
4.37806,6
4.40784,7
4.43762,8
4.4674,9
4.49718,10
4.52696,5
4.55674,8
4.58652,8
4.6163,10
4.64608,11
4.67586,13
4.70564,11
4.73542,11
4.7652,12
4.79498,2
4.82476,7
4.85454,10
4.88432,5
4.9141,8
4.94388,8
4.97366,11
5.00344,3
5.03322,10
5.063,8
5.09278,5
5.12256,6
5.15234,10
5.18212,16
5.2119,17
5.24168,12
5.27146,5
5.30124,7
5.33102,13
5.3608,11
5.39058,18
5.42036,17
5.45014,20
5.47992,14
5.5097,17
5.53948,18
5.56926,20
5.59904,23
5.62882,24
5.6586,9
5.68838,15
5.71816,9
5.74794,17
5.77772,15
5.8075,14
5.83728,11
5.86706,14
5.89684,12
5.92662,20
5.9564,12
5.98618,16
6.01596,12
6.04574,11
6.07552,13
6.1053,10
6.13508,10
6.16486,11
6.19464,14
6.22442,11
6.2542,15
6.28398,12
6.31376,9
6.34354,23
6.37332,15
6.4031,20
6.43288,21
6.46266,19
6.49244,17
6.52222,13
6.552,12
6.58178,17
6.61156,15
6.64134,17
6.67112,7
6.7009,14
6.73068,8
6.76046,14
6.79024,9
6.82002,8
6.8498,21
6.87958,7
6.90936,10
6.93914,9
6.96892,16
6.9987,17
7.02848,11
7.05826,19
7.08804,15
7.11782,27
7.1476,26
7.17738,25
7.20716,32
7.23694,34
7.26672,41
7.2965,38
7.32628,45
7.35606,38
7.38584,56
7.41562,60
7.4454,47
7.47518,60
7.50496,46
7.53474,44
7.56452,36
7.5943,27
7.62408,21
7.65386,25
7.68364,21
7.71342,15
7.7432,19
7.77298,23
7.80276,17
7.83254,30
7.86232,23
7.8921,44
7.92188,42
7.95166,86
7.98144,90
8.01122,110
8.041,89
8.07078,111
8.10056,86
8.13034,77
8.16012,68
8.1899,56
8.21968,56
8.24946,35
8.27924,44
8.30902,42
8.3388,53
8.36858,64
8.39836,69
8.42814,93
8.45792,93
8.4877,121
8.51748,118
8.54726,106
8.57704,88
8.60682,93
8.6366,51
8.66638,49
8.69616,39
8.72594,30
8.75572,23
8.7855,29
8.81528,28
8.84506,34
8.87484,31
8.90462,31
8.9344,31
8.96418,28
8.99396,24
9.02374,24
9.05352,21
9.0833,28
9.11308,29
9.14286,30
9.17264,22
9.20242,25
9.2322,23
9.26198,24
9.29176,30
9.32154,26
9.35132,28
9.3811,36
9.41088,42
9.44066,71
9.47044,129
9.50022,257
9.53,365
9.55978,671
9.58956,939
9.61934,1317
9.64912,1619
9.6789,1914
9.70868,1926
9.73846,1930
9.76824,1683
9.79802,1295
9.8278,967
9.85758,691
9.88736,385
9.91714,200
9.94692,136
9.9767,68
10.0065,54
10.0363,47
10.066,38
10.0958,40
10.1256,34
10.1554,40
10.1852,34
10.2149,39
10.2447,68
10.2745,54
10.3043,43
10.3341,48
10.3638,58
10.3936,36
10.4234,25
10.4532,26
10.483,25
10.5127,29
10.5425,21
10.5723,27
10.6021,26
10.6319,25
10.6616,19
10.6914,26
10.7212,23
10.751,18
10.7808,26
10.8105,24
10.8403,23
10.8701,30
10.8999,30
10.9297,37
10.9594,40
10.9892,39
11.019,56
11.0488,76
11.0786,85
11.1083,95
11.1381,138
11.1679,137
11.1977,175
11.2275,218
11.2572,310
11.287,369
11.3168,578
11.3466,716
11.3764,960
11.4061,1162
11.4359,1196
11.4657,1380
11.4955,1313
11.5253,1223
11.555,1094
11.5848,968
11.6146,777
11.6444,666
11.6742,520
11.7039,361
11.7337,258
11.7635,161
11.7933,104
11.8231,104
11.8528,69
11.8826,81
11.9124,84
11.9422,60
11.972,51
12.0017,48
12.0315,37
12.0613,38
12.0911,24
12.1209,24
12.1506,25
12.1804,26
12.2102,13
12.24,16
12.2698,11
12.2995,20
12.3293,21
12.3591,15
12.3889,21
12.4187,14
12.4484,13
12.4782,21
12.508,15
12.5378,15
12.5676,22
12.5973,17
12.6271,10
12.6569,23
12.6867,22
12.7165,16
12.7462,19
12.776,18
12.8058,20
12.8356,16
12.8654,23
12.8951,25
12.9249,30
12.9547,18
12.9845,17
13.0143,22
13.044,19
13.0738,22
13.1036,18
13.1334,32
13.1632,31
13.1929,50
13.2227,61
13.2525,84
13.2823,130
13.3121,193
13.3418,206
13.3716,217
13.4014,196
13.4312,170
13.461,166
13.4907,148
13.5205,106
13.5503,77
13.5801,67
13.6099,77
13.6396,65
13.6694,57
13.6992,65
13.729,63
13.7588,73
13.7885,74
13.8183,71
13.8481,61
13.8779,48
13.9077,35
13.9374,38
13.9672,21
13.997,21
14.0268,16
14.0566,21
14.0863,14
14.1161,20
14.1459,17
14.1757,20
14.2055,18
14.2352,15
14.265,15
14.2948,25
14.3246,30
14.3544,27
14.3841,14
14.4139,14
14.4437,14
14.4735,11
14.5033,9
14.533,13
14.5628,12
14.5926,12
14.6224,18
14.6522,17
14.6819,12
14.7117,11
14.7415,10
14.7713,11
14.8011,13
14.8308,13
14.8606,18
14.8904,9
14.9202,10
14.95,11
14.9797,9
15.0095,10
15.0393,19
15.0691,13
15.0989,12
15.1286,10
15.1584,14
15.1882,8
15.218,8
15.2478,18
15.2775,16
15.3073,13
15.3371,16
15.3669,16
15.3967,11
15.4264,13
15.4562,17
15.486,10
15.5158,13
15.5456,11
15.5753,22
15.6051,15
15.6349,19
15.6647,15
15.6945,11
15.7242,17
15.754,18
15.7838,17
15.8136,9
15.8434,14
15.8731,12
15.9029,13
15.9327,15
15.9625,11
15.9923,12
16.022,9
16.0518,10
16.0816,17
16.1114,10
16.1412,14
16.1709,21
16.2007,13
16.2305,11
16.2603,13
16.2901,7
16.3198,13
16.3496,14
16.3794,17
16.4092,8
16.439,15
16.4687,15
16.4985,20
16.5283,14
16.5581,14
16.5879,18
16.6176,10
16.6474,14
16.6772,12
16.707,11
16.7368,11
16.7665,9
16.7963,15
16.8261,14
16.8559,10
16.8857,11
16.9154,15
16.9452,15
16.975,17
17.0048,11
17.0346,15
17.0643,14
17.0941,18
17.1239,10
17.1537,10
17.1835,12
17.2132,9
17.243,9
17.2728,14
17.3026,12
17.3324,18
17.3621,11
17.3919,9
17.4217,13
17.4515,12
17.4813,23
17.511,20
17.5408,15
17.5706,7
17.6004,13
17.6302,12
17.6599,13
17.6897,11
17.7195,17
17.7493,12
17.7791,18
17.8088,18
17.8386,18
17.8684,16
17.8982,15
17.928,18
17.9577,21
17.9875,11
18.0173,10
18.0471,13
18.0769,14
18.1066,20
18.1364,18
18.1662,17
18.196,14
18.2258,18
18.2555,18
18.2853,19
18.3151,18
18.3449,20
18.3747,27
18.4044,22
18.4342,19
18.464,20
18.4938,28
18.5236,22
18.5533,27
18.5831,15
18.6129,20
18.6427,32
18.6725,19
18.7022,33
18.732,34
18.7618,40
18.7916,36
18.8214,38
18.8511,41
18.8809,39
18.9107,30
18.9405,27
18.9703,40
19,34
19.0298,27
19.0596,36
19.0894,25
19.1192,29
19.1489,23
19.1787,29
19.2085,28
19.2383,20
19.2681,17
19.2978,28
19.3276,32
19.3574,27
19.3872,22
19.417,16
19.4467,17
19.4765,12
19.5063,18
19.5361,22
19.5659,11
19.5956,16
19.6254,18
19.6552,11
19.685,19
19.7148,11
19.7445,19
19.7743,19
19.8041,24
19.8339,25
19.8637,20
19.8934,21
19.9232,26
19.953,20
19.9828,44
20.0126,44
20.0423,31
20.0721,40
20.1019,48
20.1317,48
20.1615,36
20.1912,48
20.221,41
20.2508,43
20.2806,34
20.3104,38
20.3401,33
20.3699,19
20.3997,22
20.4295,18
20.4593,13
20.489,19
20.5188,14
20.5486,16
20.5784,14
20.6082,16
20.6379,14
20.6677,18
20.6975,9
20.7273,18
20.7571,16
20.7868,20
20.8166,13
20.8464,24
20.8762,20
20.906,23
20.9357,23
20.9655,23
20.9953,17
21.0251,20
21.0549,26
21.0846,21
21.1144,19
21.1442,22
21.174,18
21.2038,21
21.2335,12
21.2633,19
21.2931,18
21.3229,14
21.3527,23
21.3824,23
21.4122,19
21.442,20
21.4718,19
21.5016,17
21.5313,20
21.5611,12
21.5909,18
21.6207,14
21.6505,12
21.6802,25
21.71,15
21.7398,23
21.7696,16
21.7994,20
21.8291,21
21.8589,16
21.8887,18
21.9185,21
21.9483,21
21.978,31
22.0078,36
22.0376,30
22.0674,33
22.0972,32
22.1269,38
22.1567,47
22.1865,32
22.2163,33
22.2461,31
22.2758,15
22.3056,27
22.3354,16
22.3652,15
22.395,17
22.4247,13
22.4545,9
22.4843,9
22.5141,17
22.5439,22
22.5736,23
22.6034,18
22.6332,13
22.663,30
22.6928,19
22.7225,13
22.7523,14
22.7821,25
22.8119,21
22.8417,10
22.8714,26
22.9012,17
22.931,23
22.9608,23
22.9906,26
23.0203,25
23.0501,31
23.0799,17
23.1097,11
23.1395,22
23.1692,19
23.199,22
23.2288,17
23.2586,16
23.2884,17
23.3181,16
23.3479,8
23.3777,19
23.4075,8
23.4373,10
23.467,14
23.4968,8
23.5266,10
23.5564,13
23.5862,15
23.6159,10
23.6457,16
23.6755,13
23.7053,5
23.7351,11
23.7648,18
23.7946,12
23.8244,11
23.8542,14
23.884,14
23.9137,15
23.9435,6
23.9733,12
24.0031,14
24.0329,13
24.0626,13
24.0924,10
24.1222,9
24.152,13
24.1818,8
24.2115,7
24.2413,11
24.2711,10
24.3009,7
24.3307,4
24.3604,14
24.3902,12
24.42,18
24.4498,13
24.4796,9
24.5093,10
24.5391,10
24.5689,5
24.5987,15
24.6285,18
24.6582,9
24.688,7
24.7178,10
24.7476,9
24.7774,12
24.8071,18
24.8369,15
24.8667,14
24.8965,12
24.9263,20
24.956,21
24.9858,15
25.0156,13
25.0454,14
25.0752,6
25.1049,9
25.1347,9
25.1645,7
25.1943,10
25.2241,15
25.2538,9
25.2836,8
25.3134,16
25.3432,12
25.373,8
25.4027,9
25.4325,12
25.4623,9
25.4921,17
25.5219,9
25.5516,11
25.5814,5
25.6112,3
25.641,11
25.6708,12
25.7005,8
25.7303,6
25.7601,11
25.7899,13
25.8197,10
25.8494,8
25.8792,11
25.909,10
25.9388,6
25.9686,8
25.9983,15
26.0281,11
26.0579,10
26.0877,11
26.1175,11
26.1472,9
26.177,10
26.2068,5
26.2366,5
26.2664,7
26.2961,5
26.3259,5
26.3557,13
26.3855,12
26.4153,8
26.445,6
26.4748,8
26.5046,9
26.5344,4
26.5642,7
26.5939,8
26.6237,5
26.6535,6
26.6833,6
26.7131,13
26.7428,9
26.7726,15
26.8024,2
26.8322,14
26.862,11
26.8917,8
26.9215,11
26.9513,3
26.9811,7
27.0109,9
27.0406,5
27.0704,5
27.1002,5
27.13,8
27.1598,10
27.1895,6
27.2193,8
27.2491,6
27.2789,6
27.3087,5
27.3384,5
27.3682,5
27.398,7
27.4278,9
27.4576,1
27.4873,7
27.5171,3
27.5469,2
27.5767,11
27.6065,3
27.6362,3
27.666,5
27.6958,7
27.7256,4
27.7554,4
27.7851,9
27.8149,2
27.8447,8
27.8745,8
27.9043,3
27.934,5
27.9638,8
27.9936,5
28.0234,5
28.0532,4
28.0829,5
28.1127,7
28.1425,6
28.1723,2
28.2021,7
28.2318,6
28.2616,0
28.2914,4
28.3212,7
28.351,5
28.3807,5
28.4105,4
28.4403,5
28.4701,5
28.4999,2
28.5296,6
28.5594,6
28.5892,5
28.619,3
28.6488,4
28.6785,6
28.7083,10
28.7381,5
28.7679,5
28.7977,6
28.8274,2
28.8572,4
28.887,6
28.9168,5
28.9466,4
28.9763,1
29.0061,4
29.0359,7
29.0657,2
29.0955,4
29.1252,4
29.155,4
29.1848,4
29.2146,3
29.2444,6
29.2741,3
29.3039,4
29.3337,3
29.3635,1
29.3933,3
29.423,3
29.4528,2
29.4826,3
29.5124,2
29.5422,2
29.5719,1
29.6017,3
29.6315,3
29.6613,1
29.6911,1
29.7208,1
29.7506,2
29.7804,1
29.8102,2
29.84,1
29.8697,1
29.8995,1
29.9293,5
29.9591,3
29.9889,1
30.0186,2
30.0484,0
30.0782,3
30.108,3
30.1378,2
30.1675,3
30.1973,0
30.2271,0
30.2569,2
30.2867,0
30.3164,0
30.3462,3
30.376,2
30.4058,5
30.4356,1
30.4653,0
30.4951,1
30.5249,1
30.5547,0
30.5845,0
30.6142,0
30.644,1
30.6738,0
30.7036,2
30.7334,1
30.7631,0
30.7929,0
30.8227,0
30.8525,1
30.8823,2
30.912,3
30.9418,1
30.9716,1
31.0014,1
31.0312,1
31.0609,1
31.0907,0
31.1205,0
31.1503,0
31.1801,0
31.2098,0
31.2396,0
31.2694,1
31.2992,0
31.329,0
31.3587,0
31.3885,0
31.4183,1
31.4481,0
31.4779,0
31.5076,0
31.5374,0
31.5672,2
31.597,2
31.6268,0
31.6565,1
31.6863,0
31.7161,1
31.7459,1
31.7757,1
31.8054,1
31.8352,0
31.865,0
31.8948,1
31.9246,1
31.9543,0
31.9841,0
32.0139,1
32.0437,0
32.0735,0
32.1032,0
32.133,1
32.1628,0
32.1926,0
32.2224,0
32.2521,1
32.2819,1
32.3117,0
32.3415,0
32.3713,0
32.401,0
32.4308,0
32.4606,1
32.4904,1
32.5202,1
32.5499,0
32.5797,0
32.6095,0
32.6393,0
32.6691,1
32.6988,0
32.7286,0
32.7584,0
32.7882,0
32.818,1
32.8477,0
32.8775,1
32.9073,0
32.9371,0
32.9669,0
32.9966,0
33.0264,0
33.0562,0
33.086,0
33.1158,0
33.1455,0
33.1753,0
33.2051,0
33.2349,0
33.2647,0
33.2944,0
33.3242,0
33.354,0
33.3838,0
33.4136,0
33.4433,1
33.4731,0
33.5029,0
33.5327,0
33.5625,0
33.5922,0
33.622,0
33.6518,0
33.6816,0
33.7114,0
33.7411,0
33.7709,0
33.8007,0
33.8305,0
33.8603,0
33.89,0
33.9198,0
33.9496,0
33.9794,0
34.0092,0
34.0389,0
34.0687,0
34.0985,0
34.1283,0
34.1581,0
34.1878,1
34.2176,0
34.2474,0
34.2772,0
34.307,0
34.3367,0
34.3665,0
34.3963,0
34.4261,0
34.4559,0
34.4856,0
34.5154,0
34.5452,0
34.575,0
34.6048,0
34.6345,0
34.6643,0
34.6941,1
34.7239,0
34.7537,0
34.7834,0
34.8132,0
34.843,0
34.8728,0
34.9026,0
34.9323,0
34.9621,0
34.9919,0
35.0217,0
35.0515,0
35.0812,0
35.111,0
35.1408,0
35.1706,0
35.2004,0
35.2301,0
35.2599,0
35.2897,0
35.3195,0
35.3493,0
35.379,0
35.4088,0
35.4386,0
35.4684,0
35.4982,0
35.5279,0
35.5577,0
35.5875,0
35.6173,0
35.6471,0
35.6768,0
35.7066,0
35.7364,0
35.7662,0
35.796,0
35.8257,0
35.8555,0
35.8853,0
35.9151,0
35.9449,0
35.9746,0
36.0044,0
36.0342,0
36.064,0
36.0938,0
36.1235,0
36.1533,0
36.1831,0
36.2129,0
36.2427,0
36.2724,0
36.3022,0
36.332,0
36.3618,0
36.3916,0
36.4213,0
36.4511,0
36.4809,0
36.5107,0
36.5405,0
36.5702,0
36.6,0
36.6298,0
36.6596,0
36.6894,0
36.7191,0
36.7489,0
36.7787,0
36.8085,0
36.8383,0
36.868,0
36.8978,0
36.9276,0
36.9574,0
36.9872,0
37.0169,0
37.0467,0
37.0765,0
37.1063,0
37.1361,0
37.1658,0
37.1956,0
37.2254,0
37.2552,0
37.285,0
37.3147,0
37.3445,0
37.3743,0
37.4041,0
37.4339,0
37.4636,0
37.4934,0
37.5232,0
37.553,0
37.5828,1
37.6125,0
37.6423,0
37.6721,0
37.7019,0
37.7317,0
37.7614,0
37.7912,0
37.821,0
37.8508,0
37.8806,0
37.9103,0
37.9401,0
37.9699,0
37.9997,0
38.0295,0
38.0592,0
38.089,0
38.1188,0
38.1486,0
38.1784,0
38.2081,0
38.2379,0
38.2677,0
38.2975,0
38.3273,0
38.357,0
38.3868,0
38.4166,0
38.4464,0
38.4762,0
38.5059,0
38.5357,0
38.5655,0
38.5953,0
38.6251,0
38.6548,0
38.6846,0
38.7144,0
38.7442,0
38.774,0
38.8037,0
38.8335,0
38.8633,0
38.8931,0
38.9229,0
38.9526,0
38.9824,0
39.0122,0
39.042,0
39.0718,0
39.1015,0
39.1313,0
39.1611,0
39.1909,0
39.2207,0
39.2504,0
39.2802,0
39.31,0
39.3398,0
39.3696,0
39.3993,0
39.4291,0
39.4589,0
39.4887,1
39.5185,0
39.5482,0
39.578,0
39.6078,0
39.6376,0
39.6674,0
39.6971,0
39.7269,0
39.7567,0
39.7865,0
39.8163,0
39.846,0
39.8758,0
39.9056,0
39.9354,0
39.9652,0
39.9949,0
40.0247,0
40.0545,0
40.0843,0
40.1141,0
40.1438,0
40.1736,0
40.2034,0
40.2332,0
40.263,0
40.2927,0
40.3225,0
40.3523,0
40.3821,0
40.4119,0
40.4416,0
40.4714,0
40.5012,0
40.531,0
40.5608,0
40.5905,0
40.6203,0
40.6501,0
40.6799,0
40.7097,0
40.7394,0
40.7692,0
40.799,0
40.8288,0
40.8586,0
40.8883,0
40.9181,0
40.9479,0
40.9777,0
41.0075,0
41.0372,0
41.067,1
41.0968,0
41.1266,0
41.1564,0
41.1861,0
41.2159,0
41.2457,0
41.2755,0
41.3053,0
41.335,0
41.3648,0
41.3946,0
41.4244,0
41.4542,0
41.4839,0
41.5137,0
41.5435,0
41.5733,0
41.6031,0
41.6328,0
41.6626,0
41.6924,0
41.7222,0
41.752,0
41.7817,0
41.8115,0
41.8413,0
41.8711,0
41.9009,0
41.9306,0
41.9604,0
41.9902,0
42.02,0
42.0498,0
42.0795,0
42.1093,0
42.1391,0
42.1689,0
42.1987,0
42.2284,0
42.2582,0
42.288,0
42.3178,0
42.3476,0
42.3773,0
42.4071,0
42.4369,0
42.4667,0
42.4965,0
42.5262,0
42.556,0
42.5858,0
42.6156,0
42.6454,0
42.6751,0
42.7049,0
42.7347,0
42.7645,0
42.7943,0
42.824,0
42.8538,0
42.8836,0
42.9134,0
42.9432,0
42.9729,0
43.0027,0
43.0325,0
43.0623,0
43.0921,0
43.1218,0
43.1516,0
43.1814,0
43.2112,0
43.241,0
43.2707,0
43.3005,0
43.3303,0
43.3601,0
43.3899,0
43.4196,0
43.4494,0
43.4792,0
43.509,0
43.5388,0
43.5685,0
43.5983,0
43.6281,0
43.6579,0
43.6877,0
43.7174,0
43.7472,0
43.777,0
43.8068,0
43.8366,0
43.8663,0
43.8961,0
43.9259,0
43.9557,0
43.9855,0
44.0152,0
44.045,0
44.0748,0
44.1046,0
44.1344,0
44.1641,0
44.1939,0
44.2237,0
44.2535,0
44.2833,0
44.313,1
44.3428,0
44.3726,0
44.4024,0
44.4322,1
44.4619,0
44.4917,0
44.5215,0
44.5513,0
44.5811,0
44.6108,0
44.6406,0
44.6704,0
44.7002,0
44.73,0
44.7597,0
44.7895,0
44.8193,0
44.8491,0
44.8789,0
44.9086,0
44.9384,0
44.9682,0
44.998,0
45.0278,0
45.0575,0
45.0873,1
45.1171,0
45.1469,1
45.1767,0
45.2064,0
45.2362,0
45.266,0
45.2958,0
45.3256,0
45.3553,0
45.3851,0
45.4149,0
45.4447,0
45.4745,0
45.5042,0
45.534,1
45.5638,0
45.5936,0
45.6234,0
45.6531,0
45.6829,0
45.7127,0
45.7425,0
45.7723,1
45.802,0
45.8318,0
45.8616,0
45.8914,0
45.9212,0
45.9509,0
45.9807,0
46.0105,0
46.0403,0
46.0701,0
46.0998,0
46.1296,0
46.1594,0
46.1892,0
46.219,0
46.2487,0
46.2785,0
46.3083,0
46.3381,0
46.3679,0
46.3976,0
46.4274,1
46.4572,0
46.487,0
46.5168,0
46.5465,0
46.5763,0
46.6061,0
46.6359,0
46.6657,0
46.6954,0
46.7252,1
46.755,0
46.7848,0
46.8146,0
46.8443,0
46.8741,0
46.9039,0
46.9337,0
46.9635,0
46.9932,0
47.023,0
47.0528,0
47.0826,1
47.1124,0
47.1421,0
47.1719,0
47.2017,0
47.2315,0
47.2613,0
47.291,0
47.3208,0
47.3506,0
47.3804,0
47.4102,0
47.4399,0
47.4697,0
47.4995,0
47.5293,0
47.5591,0
47.5888,1
47.6186,0
47.6484,0
47.6782,0
47.708,0
47.7377,0
47.7675,0
47.7973,0
47.8271,0
47.8569,0
47.8866,0
47.9164,0
47.9462,0
47.976,0
48.0058,0
48.0355,0
48.0653,0
48.0951,0
48.1249,0
48.1547,0
48.1844,0
48.2142,0
48.244,0
48.2738,0
48.3036,0
48.3333,0
48.3631,0
48.3929,0
48.4227,0
48.4525,0
48.4822,0
48.512,0
48.5418,0
48.5716,0
48.6014,0
48.6311,0
48.6609,0
48.6907,0
48.7205,0
48.7503,0
48.78,0
48.8098,0
48.8396,0
48.8694,0
48.8992,0
48.9289,0
48.9587,0
48.9885,0
49.0183,0
49.0481,0
49.0778,0
49.1076,0
49.1374,0
49.1672,0
49.197,0
49.2267,0
49.2565,0
49.2863,1
49.3161,0
49.3459,0
49.3756,0
49.4054,0
49.4352,1
49.465,0
49.4948,0
49.5245,0
49.5543,0
49.5841,0
49.6139,0
49.6437,1
49.6734,0
49.7032,0
49.733,0
49.7628,1
49.7926,0
49.8223,0
49.8521,0
49.8819,0
49.9117,0
49.9415,0
49.9712,0
50.001,0
50.0308,0
50.0606,0
50.0904,0
50.1201,0
50.1499,0
50.1797,0
50.2095,0
50.2393,0
50.269,0
50.2988,0
50.3286,0
50.3584,0
50.3882,0
50.4179,0
50.4477,0
50.4775,0
50.5073,0
50.5371,0
50.5668,0
50.5966,0
50.6264,0
50.6562,0
50.686,0
50.7157,0
50.7455,0
50.7753,0
50.8051,0
50.8349,0
50.8646,0
50.8944,0
50.9242,0
50.954,0
50.9838,0
51.0135,0
51.0433,0
51.0731,0
51.1029,0
51.1327,0
51.1624,0
51.1922,0
51.222,0
51.2518,0
51.2816,0
51.3113,0
51.3411,0
51.3709,0
51.4007,0
51.4305,0
51.4602,0
51.49,0
51.5198,0
51.5496,0
51.5794,0
51.6091,0
51.6389,0
51.6687,0
51.6985,0
51.7283,0
51.758,0
51.7878,0
51.8176,0
51.8474,0
51.8772,0
51.9069,0
51.9367,0
51.9665,0
51.9963,1
52.0261,0
52.0558,0
52.0856,0
52.1154,0
52.1452,0
52.175,0
52.2047,1
52.2345,0
52.2643,0
52.2941,0
52.3239,0
52.3536,0
52.3834,0
52.4132,0
52.443,0
52.4728,0
52.5025,0
52.5323,0
52.5621,0
52.5919,0
52.6217,0
52.6514,0
52.6812,0
52.711,0
52.7408,0
52.7706,0
52.8003,0
52.8301,0
52.8599,0
52.8897,0
52.9195,0
52.9492,0
52.979,0
53.0088,0
53.0386,0
53.0684,0
53.0981,0
53.1279,0
53.1577,1
53.1875,0
53.2173,0
53.247,0
53.2768,0
53.3066,0
53.3364,0
53.3662,0
53.3959,0
53.4257,0
53.4555,0
53.4853,0
53.5151,0
53.5448,0
53.5746,0
53.6044,0
53.6342,0
53.664,1
53.6937,1
53.7235,0
53.7533,0
53.7831,0
53.8129,0
53.8426,0
53.8724,0
53.9022,0
53.932,0
53.9618,0
53.9915,0
54.0213,0
54.0511,0
54.0809,0
54.1107,0
54.1404,0
54.1702,0
54.2,0
54.2298,0
54.2596,0
54.2893,0
54.3191,0
54.3489,0
54.3787,0
54.4085,0
54.4382,0
54.468,0
54.4978,0
54.5276,0
54.5574,0
54.5871,1
54.6169,0
54.6467,0
54.6765,0
54.7063,0
54.736,0
54.7658,0
54.7956,0
54.8254,0
54.8552,0
54.8849,0
54.9147,0
54.9445,0
54.9743,0
55.0041,0
55.0338,0
55.0636,0
55.0934,0
55.1232,0
55.153,0
55.1827,0
55.2125,0
55.2423,0
55.2721,0
55.3019,0
55.3316,0
55.3614,0
55.3912,0
55.421,0
55.4508,0
55.4805,0
55.5103,0
55.5401,1
55.5699,0
55.5997,0
55.6294,0
55.6592,0
55.689,0
55.7188,0
55.7486,0
55.7783,0
55.8081,0
55.8379,0
55.8677,0
55.8975,0
55.9272,1
55.957,0
55.9868,0
56.0166,0
56.0464,0
56.0761,0
56.1059,0
56.1357,0
56.1655,0
56.1953,0
56.225,0
56.2548,0
56.2846,0
56.3144,0
56.3442,0
56.3739,0
56.4037,0
56.4335,0
56.4633,0
56.4931,0
56.5228,0
56.5526,0
56.5824,0
56.6122,0
56.642,0
56.6717,0
56.7015,0
56.7313,0
56.7611,0
56.7909,0
56.8206,0
56.8504,0
56.8802,0
56.91,0
56.9398,0
56.9695,0
56.9993,0
57.0291,0
57.0589,0
57.0887,0
57.1184,0
57.1482,0
57.178,0
57.2078,0
57.2376,0
57.2673,0
57.2971,0
57.3269,0
57.3567,0
57.3865,0
57.4162,1
57.446,0
57.4758,0
57.5056,0
57.5354,0
57.5651,0
57.5949,0
57.6247,0
57.6545,0
57.6843,0
57.714,0
57.7438,0
57.7736,0
57.8034,0
57.8332,0
57.8629,0
57.8927,0
57.9225,0
57.9523,0
57.9821,0
58.0118,0
58.0416,0
58.0714,0
58.1012,0
58.131,0
58.1607,0
58.1905,0
58.2203,0
58.2501,1
58.2799,0
58.3096,0
58.3394,0
58.3692,0
58.399,0
58.4288,0
58.4585,0
58.4883,0
58.5181,0
58.5479,0
58.5777,0
58.6074,0
58.6372,0
58.667,0
58.6968,0
58.7266,0
58.7563,0
58.7861,0
58.8159,0
58.8457,0
58.8755,0
58.9052,0
58.935,0
58.9648,0
58.9946,0
59.0244,0
59.0541,0
59.0839,0
59.1137,0
59.1435,0
59.1733,0
59.203,0
59.2328,0
59.2626,0
59.2924,0
59.3222,0
59.3519,0
59.3817,0
59.4115,0
59.4413,0
59.4711,0
59.5008,0
59.5306,1
59.5604,0
59.5902,1
59.62,2
59.6497,0
59.6795,2
59.7093,0
59.7391,0
59.7689,0
59.7986,0
59.8284,0
59.8582,0
59.888,0
59.9178,0
59.9475,0
59.9773,0
60.0071,0
60.0369,0
60.0667,0
60.0964,0
60.1262,0
60.156,0
60.1858,0
60.2156,0
60.2453,0
60.2751,0
60.3049,0
60.3347,0
60.3645,0
60.3942,0
60.424,0
60.4538,0
60.4836,0
60.5134,0
60.5431,0
60.5729,0
60.6027,0
60.6325,0
60.6623,0
60.692,0
60.7218,0
60.7516,0
60.7814,0
60.8112,0
60.8409,0
60.8707,0
60.9005,0
60.9303,0
60.9601,0
60.9898,0
61.0196,0
