Energy 	Counts
0.0004,0
0.03018,0
0.05996,0
0.08974,0
0.11952,0
0.1493,0
0.17908,0
0.20886,0
0.23864,0
0.26842,0
0.2982,0
0.32798,1
0.35776,24
0.38754,59
0.41732,86
0.4471,118
0.47688,105
0.50666,92
0.53644,104
0.56622,87
0.596,88
0.62578,83
0.65556,98
0.68534,88
0.71512,84
0.7449,82
0.77468,81
0.80446,69
0.83424,77
0.86402,62
0.8938,77
0.92358,74
0.95336,73
0.98314,71
1.01292,62
1.0427,75
1.07248,68
1.10226,74
1.13204,60
1.16182,54
1.1916,69
1.22138,54
1.25116,68
1.28094,64
1.31072,59
1.3405,66
1.37028,59
1.40006,61
1.42984,61
1.45962,71
1.4894,67
1.51918,64
1.54896,62
1.57874,45
1.60852,66
1.6383,59
1.66808,54
1.69786,60
1.72764,60
1.75742,65
1.7872,62
1.81698,51
1.84676,65
1.87654,62
1.90632,60
1.9361,61
1.96588,51
1.99566,54
2.02544,62
2.05522,40
2.085,51
2.11478,51
2.14456,47
2.17434,48
2.20412,50
2.2339,52
2.26368,53
2.29346,48
2.32324,39
2.35302,49
2.3828,43
2.41258,54
2.44236,50
2.47214,36
2.50192,39
2.5317,47
2.56148,45
2.59126,31
2.62104,34
2.65082,41
2.6806,48
2.71038,48
2.74016,53
2.76994,54
2.79972,36
2.8295,42
2.85928,39
2.88906,46
2.91884,45
2.94862,46
2.9784,45
3.00818,46
3.03796,47
3.06774,46
3.09752,40
3.1273,41
3.15708,44
3.18686,40
3.21664,39
3.24642,39
3.2762,44
3.30598,48
3.33576,46
3.36554,52
3.39532,44
3.4251,37
3.45488,28
3.48466,39
3.51444,47
3.54422,39
3.574,28
3.60378,38
3.63356,26
3.66334,30
3.69312,29
3.7229,30
3.75268,38
3.78246,27
3.81224,31
3.84202,30
3.8718,22
3.90158,35
3.93136,29
3.96114,27
3.99092,31
4.0207,37
4.05048,26
4.08026,25
4.11004,26
4.13982,17
4.1696,21
4.19938,31
4.22916,34
4.25894,20
4.28872,25
4.3185,24
4.34828,43
4.37806,30
4.40784,40
4.43762,50
4.4674,53
4.49718,40
4.52696,37
4.55674,54
4.58652,23
4.6163,31
4.64608,24
4.67586,15
4.70564,31
4.73542,31
4.7652,41
4.79498,36
4.82476,36
4.85454,34
4.88432,39
4.9141,19
4.94388,39
4.97366,37
5.00344,36
5.03322,32
5.063,23
5.09278,27
5.12256,31
5.15234,28
5.18212,34
5.2119,23
5.24168,26
5.27146,20
5.30124,17
5.33102,18
5.3608,16
5.39058,24
5.42036,25
5.45014,18
5.47992,20
5.5097,25
5.53948,25
5.56926,22
5.59904,24
5.62882,19
5.6586,30
5.68838,25
5.71816,21
5.74794,17
5.77772,39
5.8075,17
5.83728,13
5.86706,25
5.89684,20
5.92662,14
5.9564,19
5.98618,23
6.01596,17
6.04574,30
6.07552,27
6.1053,20
6.13508,21
6.16486,17
6.19464,15
6.22442,18
6.2542,19
6.28398,15
6.31376,20
6.34354,13
6.37332,20
6.4031,21
6.43288,18
6.46266,19
6.49244,18
6.52222,18
6.552,17
6.58178,20
6.61156,14
6.64134,18
6.67112,21
6.7009,21
6.73068,24
6.76046,14
6.79024,17
6.82002,21
6.8498,19
6.87958,14
6.90936,20
6.93914,13
6.96892,17
6.9987,12
7.02848,12
7.05826,23
7.08804,13
7.11782,18
7.1476,24
7.17738,20
7.20716,14
7.23694,15
7.26672,12
7.2965,15
7.32628,22
7.35606,16
7.38584,16
7.41562,13
7.4454,15
7.47518,16
7.50496,13
7.53474,14
7.56452,13
7.5943,22
7.62408,13
7.65386,14
7.68364,19
7.71342,10
7.7432,19
7.77298,12
7.80276,23
7.83254,11
7.86232,14
7.8921,13
7.92188,13
7.95166,15
7.98144,11
8.01122,16
8.041,13
8.07078,14
8.10056,17
8.13034,17
8.16012,13
8.1899,9
8.21968,13
8.24946,16
8.27924,9
8.30902,10
8.3388,12
8.36858,15
8.39836,11
8.42814,18
8.45792,11
8.4877,11
8.51748,4
8.54726,13
8.57704,14
8.60682,15
8.6366,9
8.66638,12
8.69616,15
8.72594,9
8.75572,9
8.7855,17
8.81528,11
8.84506,8
8.87484,10
8.90462,13
8.9344,9
8.96418,13
8.99396,8
9.02374,14
9.05352,10
9.0833,15
9.11308,5
9.14286,9
9.17264,10
9.20242,13
9.2322,14
9.26198,14
9.29176,9
9.32154,14
9.35132,6
9.3811,4
9.41088,8
9.44066,13
9.47044,9
9.50022,9
9.53,6
9.55978,4
9.58956,12
9.61934,13
9.64912,8
9.6789,5
9.70868,10
9.73846,11
9.76824,11
9.79802,6
9.8278,9
9.85758,5
9.88736,9
9.91714,4
9.94692,9
9.9767,9
10.0065,8
10.0363,10
10.066,7
10.0958,7
10.1256,8
10.1554,9
10.1852,11
10.2149,7
10.2447,9
10.2745,9
10.3043,6
10.3341,14
10.3638,5
10.3936,8
10.4234,14
10.4532,8
10.483,7
10.5127,8
10.5425,12
10.5723,10
10.6021,4
10.6319,2
10.6616,3
10.6914,6
10.7212,9
10.751,6
10.7808,10
10.8105,5
10.8403,7
10.8701,11
10.8999,7
10.9297,12
10.9594,6
10.9892,7
11.019,3
11.0488,10
11.0786,5
11.1083,7
11.1381,6
11.1679,8
11.1977,2
11.2275,5
11.2572,3
11.287,12
11.3168,6
11.3466,7
11.3764,8
11.4061,9
11.4359,10
11.4657,4
11.4955,5
11.5253,8
11.555,3
11.5848,8
11.6146,6
11.6444,10
11.6742,8
11.7039,8
11.7337,6
11.7635,9
11.7933,5
11.8231,10
11.8528,8
11.8826,7
11.9124,3
11.9422,8
11.972,10
12.0017,9
12.0315,5
12.0613,4
12.0911,6
12.1209,9
12.1506,8
12.1804,4
12.2102,8
12.24,1
12.2698,3
12.2995,4
12.3293,5
12.3591,12
12.3889,6
12.4187,9
12.4484,5
12.4782,6
12.508,5
12.5378,6
12.5676,1
12.5973,3
12.6271,7
12.6569,11
12.6867,6
12.7165,8
12.7462,6
12.776,5
12.8058,6
12.8356,5
12.8654,7
12.8951,5
12.9249,5
12.9547,5
12.9845,10
13.0143,4
13.044,4
13.0738,6
13.1036,2
13.1334,5
13.1632,6
13.1929,5
13.2227,8
13.2525,6
13.2823,9
13.3121,4
13.3418,6
13.3716,4
13.4014,4
13.4312,7
13.461,5
13.4907,8
13.5205,8
13.5503,6
13.5801,12
13.6099,2
13.6396,2
13.6694,0
13.6992,3
13.729,1
13.7588,2
13.7885,5
13.8183,9
13.8481,6
13.8779,6
13.9077,7
13.9374,6
13.9672,10
13.997,14
14.0268,15
14.0566,10
14.0863,17
14.1161,17
14.1459,15
14.1757,11
14.2055,17
14.2352,13
14.265,12
14.2948,9
14.3246,8
14.3544,5
14.3841,7
14.4139,3
14.4437,5
14.4735,4
14.5033,4
14.533,6
14.5628,4
14.5926,1
14.6224,2
14.6522,9
14.6819,3
14.7117,8
14.7415,4
14.7713,1
14.8011,2
14.8308,6
14.8606,4
14.8904,2
14.9202,5
14.95,4
14.9797,4
15.0095,4
15.0393,5
15.0691,5
15.0989,9
15.1286,6
15.1584,5
15.1882,7
15.218,4
15.2478,8
15.2775,5
15.3073,5
15.3371,6
15.3669,2
15.3967,4
15.4264,4
15.4562,0
15.486,4
15.5158,2
15.5456,7
15.5753,3
15.6051,3
15.6349,4
15.6647,7
15.6945,7
15.7242,5
15.754,6
15.7838,10
15.8136,9
15.8434,8
15.8731,6
15.9029,12
15.9327,3
15.9625,4
15.9923,4
16.022,9
16.0518,5
16.0816,3
16.1114,3
16.1412,2
16.1709,3
16.2007,4
16.2305,1
16.2603,6
16.2901,3
16.3198,2
16.3496,3
16.3794,0
16.4092,5
16.439,6
16.4687,4
16.4985,7
16.5283,6
16.5581,7
16.5879,5
16.6176,2
16.6474,1
16.6772,7
16.707,7
16.7368,2
16.7665,6
16.7963,8
16.8261,5
16.8559,5
16.8857,6
16.9154,2
16.9452,2
16.975,4
17.0048,6
17.0346,2
17.0643,3
17.0941,2
17.1239,5
17.1537,2
17.1835,2
17.2132,5
17.243,7
17.2728,5
17.3026,7
17.3324,5
17.3621,7
17.3919,4
17.4217,6
17.4515,6
17.4813,9
17.511,2
17.5408,6
17.5706,2
17.6004,4
17.6302,2
17.6599,4
17.6897,5
17.7195,3
17.7493,4
17.7791,6
17.8088,3
17.8386,1
17.8684,6
17.8982,1
17.928,0
17.9577,6
17.9875,7
18.0173,6
18.0471,0
18.0769,7
18.1066,4
18.1364,4
18.1662,3
18.196,7
18.2258,7
18.2555,6
18.2853,2
18.3151,4
18.3449,1
18.3747,7
18.4044,6
18.4342,2
18.464,3
18.4938,5
18.5236,5
18.5533,4
18.5831,6
18.6129,2
18.6427,1
18.6725,5
18.7022,3
18.732,7
18.7618,2
18.7916,8
18.8214,3
18.8511,5
18.8809,1
18.9107,3
18.9405,8
18.9703,7
19,7
19.0298,4
19.0596,5
19.0894,6
19.1192,6
19.1489,4
19.1787,5
19.2085,5
19.2383,8
19.2681,5
19.2978,5
19.3276,2
19.3574,5
19.3872,5
19.417,3
19.4467,6
19.4765,5
19.5063,4
19.5361,4
19.5659,9
19.5956,5
19.6254,4
19.6552,3
19.685,4
19.7148,5
19.7445,3
19.7743,3
19.8041,5
19.8339,1
19.8637,4
19.8934,4
19.9232,4
19.953,8
19.9828,3
20.0126,1
20.0423,4
20.0721,1
20.1019,7
20.1317,5
20.1615,4
20.1912,1
20.221,0
20.2508,5
20.2806,8
20.3104,4
20.3401,4
20.3699,1
20.3997,3
20.4295,5
20.4593,4
20.489,2
20.5188,2
20.5486,1
20.5784,2
20.6082,1
20.6379,3
20.6677,5
20.6975,4
20.7273,6
20.7571,4
20.7868,3
20.8166,7
20.8464,3
20.8762,3
20.906,9
20.9357,3
20.9655,4
20.9953,5
21.0251,2
21.0549,6
21.0846,2
21.1144,5
21.1442,4
21.174,7
21.2038,7
21.2335,5
21.2633,10
21.2931,5
21.3229,5
21.3527,4
21.3824,3
21.4122,3
21.442,3
21.4718,2
21.5016,5
21.5313,10
21.5611,4
21.5909,1
21.6207,0
21.6505,2
21.6802,2
21.71,6
21.7398,3
21.7696,3
21.7994,6
21.8291,3
21.8589,4
21.8887,4
21.9185,3
21.9483,6
21.978,9
22.0078,8
22.0376,3
22.0674,5
22.0972,11
22.1269,8
22.1567,4
22.1865,7
22.2163,6
22.2461,5
22.2758,3
22.3056,1
22.3354,1
22.3652,8
22.395,1
22.4247,5
22.4545,2
22.4843,6
22.5141,1
22.5439,3
22.5736,4
22.6034,1
22.6332,7
22.663,7
22.6928,3
22.7225,10
22.7523,2
22.7821,13
22.8119,8
22.8417,13
22.8714,16
22.9012,13
22.931,13
22.9608,16
22.9906,20
23.0203,14
23.0501,13
23.0799,17
23.1097,16
23.1395,16
23.1692,12
23.199,18
23.2288,9
23.2586,5
23.2884,9
23.3181,7
23.3479,4
23.3777,7
23.4075,13
23.4373,5
23.467,7
23.4968,5
23.5266,5
23.5564,4
23.5862,4
23.6159,3
23.6457,5
23.6755,9
23.7053,5
23.7351,7
23.7648,4
23.7946,5
23.8244,4
23.8542,8
23.884,8
23.9137,10
23.9435,17
23.9733,20
24.0031,11
24.0329,15
24.0626,21
24.0924,24
24.1222,14
24.152,18
24.1818,13
24.2115,19
24.2413,16
24.2711,12
24.3009,12
24.3307,10
24.3604,7
24.3902,8
24.42,6
24.4498,8
24.4796,5
24.5093,6
24.5391,4
24.5689,14
24.5987,5
24.6285,2
24.6582,7
24.688,12
24.7178,3
24.7476,10
24.7774,4
24.8071,8
24.8369,6
24.8667,11
24.8965,15
24.9263,12
24.956,18
24.9858,11
25.0156,19
25.0454,27
25.0752,26
25.1049,28
25.1347,38
25.1645,29
25.1943,35
25.2241,29
25.2538,23
25.2836,40
25.3134,22
25.3432,28
25.373,20
25.4027,25
25.4325,15
25.4623,16
25.4921,6
25.5219,11
25.5516,11
25.5814,2
25.6112,9
25.641,11
25.6708,5
25.7005,3
25.7303,2
25.7601,5
25.7899,3
25.8197,5
25.8494,4
25.8792,4
25.909,6
25.9388,10
25.9686,5
25.9983,9
26.0281,7
26.0579,2
26.0877,2
26.1175,11
26.1472,4
26.177,4
26.2068,4
26.2366,6
26.2664,8
26.2961,8
26.3259,5
26.3557,5
26.3855,2
26.4153,5
26.445,4
26.4748,8
26.5046,3
26.5344,3
26.5642,6
26.5939,4
26.6237,11
26.6535,11
26.6833,4
26.7131,5
26.7428,5
26.7726,3
26.8024,4
26.8322,8
26.862,6
26.8917,3
26.9215,4
26.9513,9
26.9811,7
27.0109,8
27.0406,6
27.0704,7
27.1002,10
27.13,9
27.1598,10
27.1895,10
27.2193,7
27.2491,12
27.2789,13
27.3087,8
27.3384,8
27.3682,9
27.398,6
27.4278,6
27.4576,8
27.4873,5
27.5171,6
27.5469,7
27.5767,4
27.6065,5
27.6362,9
27.666,5
27.6958,6
27.7256,6
27.7554,12
27.7851,9
27.8149,10
27.8447,10
27.8745,7
27.9043,3
27.934,11
27.9638,12
27.9936,18
28.0234,7
28.0532,5
28.0829,9
28.1127,5
28.1425,8
28.1723,12
28.2021,5
28.2318,14
28.2616,14
28.2914,8
28.3212,13
28.351,18
28.3807,22
28.4105,20
28.4403,16
28.4701,18
28.4999,13
28.5296,17
28.5594,14
28.5892,15
28.619,11
28.6488,4
28.6785,15
28.7083,12
28.7381,18
28.7679,17
28.7977,13
28.8274,13
28.8572,15
28.887,16
28.9168,13
28.9466,19
28.9763,12
29.0061,12
29.0359,23
29.0657,11
29.0955,18
29.1252,16
29.155,18
29.1848,17
29.2146,16
29.2444,16
29.2741,16
29.3039,18
29.3337,22
29.3635,13
29.3933,19
29.423,21
29.4528,13
29.4826,18
29.5124,17
29.5422,17
29.5719,10
29.6017,8
29.6315,19
29.6613,14
29.6911,17
29.7208,17
29.7506,16
29.7804,17
29.8102,19
29.84,16
29.8697,14
29.8995,13
29.9293,9
29.9591,14
29.9889,17
30.0186,10
30.0484,25
30.0782,12
30.108,26
30.1378,13
30.1675,13
30.1973,12
30.2271,13
30.2569,16
30.2867,24
30.3164,26
30.3462,10
30.376,19
30.4058,15
30.4356,14
30.4653,12
30.4951,19
30.5249,10
30.5547,14
30.5845,14
30.6142,18
30.644,20
30.6738,11
30.7036,17
30.7334,11
30.7631,19
30.7929,25
30.8227,14
30.8525,24
30.8823,10
30.912,16
30.9418,19
30.9716,22
31.0014,14
31.0312,21
31.0609,15
31.0907,18
31.1205,13
31.1503,26
31.1801,12
31.2098,20
31.2396,23
31.2694,25
31.2992,25
31.329,18
31.3587,29
31.3885,24
31.4183,35
31.4481,43
31.4779,43
31.5076,69
31.5374,68
31.5672,118
31.597,158
31.6268,221
31.6565,258
31.6863,329
31.7161,388
31.7459,432
31.7757,477
31.8054,515
31.8352,527
31.865,532
31.8948,538
31.9246,477
31.9543,500
31.9841,499
32.0139,560
32.0437,626
32.0735,691
32.1032,755
32.133,823
32.1628,940
32.1926,857
32.2224,864
32.2521,826
32.2819,671
32.3117,620
32.3415,511
32.3713,382
32.401,290
32.4308,196
32.4606,138
32.4904,97
32.5202,59
32.5499,53
32.5797,47
32.6095,16
32.6393,11
32.6691,18
32.6988,8
32.7286,11
32.7584,6
32.7882,6
32.818,6
32.8477,7
32.8775,6
32.9073,4
32.9371,3
32.9669,5
32.9966,10
33.0264,8
33.0562,10
33.086,10
33.1158,8
33.1455,5
33.1753,9
33.2051,4
33.2349,7
33.2647,7
33.2944,4
33.3242,4
33.354,4
33.3838,3
33.4136,6
33.4433,7
33.4731,6
33.5029,3
33.5327,2
33.5625,5
33.5922,5
33.622,4
33.6518,6
33.6816,4
33.7114,1
33.7411,3
33.7709,5
33.8007,5
33.8305,7
33.8603,2
33.89,3
33.9198,4
33.9496,3
33.9794,2
34.0092,8
34.0389,4
34.0687,5
34.0985,7
34.1283,3
34.1581,4
34.1878,6
34.2176,4
34.2474,8
34.2772,4
34.307,2
34.3367,3
34.3665,6
34.3963,3
34.4261,4
34.4559,1
34.4856,1
34.5154,8
34.5452,10
34.575,9
34.6048,6
34.6345,1
34.6643,8
34.6941,6
34.7239,5
34.7537,3
34.7834,4
34.8132,3
34.843,4
34.8728,2
34.9026,5
34.9323,5
34.9621,5
34.9919,4
35.0217,1
35.0515,8
35.0812,4
35.111,2
35.1408,4
35.1706,2
35.2004,4
35.2301,3
35.2599,8
35.2897,4
35.3195,3
35.3493,7
35.379,4
35.4088,6
35.4386,3
35.4684,5
35.4982,6
35.5279,4
35.5577,8
35.5875,7
35.6173,5
35.6471,4
35.6768,5
35.7066,1
35.7364,5
35.7662,6
35.796,4
35.8257,6
35.8555,5
35.8853,5
35.9151,7
35.9449,9
35.9746,12
36.0044,23
36.0342,22
36.064,39
36.0938,39
36.1235,62
36.1533,78
36.1831,102
36.2129,123
36.2427,137
36.2724,149
36.3022,139
36.332,182
36.3618,195
36.3916,168
36.4213,176
36.4511,144
36.4809,133
36.5107,113
36.5405,66
36.5702,60
36.6,64
36.6298,33
36.6596,37
36.6894,18
36.7191,22
36.7489,14
36.7787,8
36.8085,6
36.8383,5
36.868,5
36.8978,6
36.9276,10
36.9574,13
36.9872,7
37.0169,14
37.0467,13
37.0765,14
37.1063,22
37.1361,28
37.1658,39
37.1956,27
37.2254,43
37.2552,52
37.285,32
37.3147,43
37.3445,34
37.3743,42
37.4041,34
37.4339,27
37.4636,24
37.4934,14
37.5232,11
37.553,9
37.5828,3
37.6125,4
37.6423,5
37.6721,1
37.7019,2
37.7317,2
37.7614,1
37.7912,1
37.821,2
37.8508,2
37.8806,3
37.9103,2
37.9401,4
37.9699,1
37.9997,1
38.0295,0
38.0592,0
38.089,1
38.1188,1
38.1486,1
38.1784,3
38.2081,2
38.2379,4
38.2677,0
38.2975,3
38.3273,1
38.357,2
38.3868,1
38.4166,1
38.4464,2
38.4762,2
38.5059,1
38.5357,0
38.5655,1
38.5953,2
38.6251,1
38.6548,0
38.6846,4
38.7144,0
38.7442,0
38.774,0
38.8037,3
38.8335,0
38.8633,0
38.8931,1
38.9229,1
38.9526,1
38.9824,0
39.0122,1
39.042,3
39.0718,1
39.1015,1
39.1313,2
39.1611,0
39.1909,1
39.2207,0
39.2504,3
39.2802,5
39.31,1
39.3398,0
39.3696,0
39.3993,3
39.4291,2
39.4589,3
39.4887,1
39.5185,1
39.5482,3
39.578,1
39.6078,2
39.6376,4
39.6674,2
39.6971,4
39.7269,3
39.7567,4
39.7865,2
39.8163,1
39.846,2
39.8758,2
39.9056,1
39.9354,3
39.9652,1
39.9949,1
40.0247,2
40.0545,0
40.0843,3
40.1141,1
40.1438,0
40.1736,5
40.2034,2
40.2332,1
40.263,4
40.2927,1
40.3225,2
40.3523,3
40.3821,2
40.4119,1
40.4416,4
40.4714,1
40.5012,1
40.531,1
40.5608,0
40.5905,3
40.6203,2
40.6501,2
40.6799,1
40.7097,2
40.7394,2
40.7692,2
40.799,4
40.8288,1
40.8586,2
40.8883,1
40.9181,3
40.9479,2
40.9777,3
41.0075,1
41.0372,4
41.067,2
41.0968,4
41.1266,2
41.1564,0
41.1861,7
41.2159,5
41.2457,2
41.2755,4
41.3053,5
41.335,4
41.3648,2
41.3946,4
41.4244,3
41.4542,3
41.4839,2
41.5137,3
41.5435,3
41.5733,3
41.6031,0
41.6328,1
41.6626,5
41.6924,2
41.7222,3
41.752,2
41.7817,1
41.8115,4
41.8413,8
41.8711,1
41.9009,2
41.9306,0
41.9604,2
41.9902,1
42.02,3
42.0498,2
42.0795,5
42.1093,5
42.1391,6
42.1689,2
42.1987,1
42.2284,3
42.2582,2
42.288,3
42.3178,2
42.3476,6
42.3773,1
42.4071,6
42.4369,2
42.4667,1
42.4965,3
42.5262,5
42.556,5
42.5858,4
42.6156,2
42.6454,7
42.6751,4
42.7049,1
42.7347,2
42.7645,6
42.7943,5
42.824,5
42.8538,4
42.8836,4
42.9134,2
42.9432,2
42.9729,6
43.0027,2
43.0325,4
43.0623,2
43.0921,1
43.1218,3
43.1516,4
43.1814,8
43.2112,8
43.241,4
43.2707,4
43.3005,4
43.3303,5
43.3601,2
43.3899,2
43.4196,4
43.4494,6
43.4792,9
43.509,2
43.5388,6
43.5685,4
43.5983,3
43.6281,1
43.6579,3
43.6877,4
43.7174,3
43.7472,8
43.777,11
43.8068,4
43.8366,9
43.8663,5
43.8961,5
43.9259,3
43.9557,4
43.9855,3
44.0152,6
44.045,9
44.0748,5
44.1046,6
44.1344,5
44.1641,7
44.1939,2
44.2237,11
44.2535,5
44.2833,3
44.313,3
44.3428,4
44.3726,8
44.4024,2
44.4322,13
44.4619,6
44.4917,5
44.5215,6
44.5513,9
44.5811,5
44.6108,4
44.6406,6
44.6704,7
44.7002,5
44.73,10
44.7597,4
44.7895,3
44.8193,4
44.8491,4
44.8789,2
44.9086,6
44.9384,5
44.9682,10
44.998,7
45.0278,6
45.0575,6
45.0873,10
45.1171,5
45.1469,5
45.1767,6
45.2064,5
45.2362,5
45.266,6
45.2958,8
45.3256,9
45.3553,4
45.3851,4
45.4149,4
45.4447,6
45.4745,13
45.5042,9
45.534,8
45.5638,3
45.5936,8
45.6234,6
45.6531,5
45.6829,5
45.7127,4
45.7425,9
45.7723,7
45.802,7
45.8318,10
45.8616,10
45.8914,7
45.9212,7
45.9509,7
45.9807,4
46.0105,6
46.0403,12
46.0701,10
46.0998,11
46.1296,5
46.1594,4
46.1892,4
46.219,5
46.2487,10
46.2785,8
46.3083,5
46.3381,6
46.3679,13
46.3976,7
46.4274,15
46.4572,11
46.487,12
46.5168,9
46.5465,11
46.5763,14
46.6061,8
46.6359,12
46.6657,17
46.6954,13
46.7252,9
46.755,5
46.7848,14
46.8146,11
46.8443,13
46.8741,13
46.9039,14
46.9337,17
46.9635,8
46.9932,12
47.023,12
47.0528,5
47.0826,9
47.1124,16
47.1421,17
47.1719,13
47.2017,9
47.2315,21
47.2613,17
47.291,19
47.3208,10
47.3506,23
47.3804,20
47.4102,17
47.4399,18
47.4697,19
47.4995,13
47.5293,23
47.5591,16
47.5888,18
47.6186,15
47.6484,17
47.6782,20
47.708,17
47.7377,11
47.7675,13
47.7973,16
47.8271,15
47.8569,21
47.8866,13
47.9164,35
47.9462,29
47.976,28
48.0058,22
48.0355,22
48.0653,24
48.0951,25
48.1249,22
48.1547,36
48.1844,22
48.2142,26
48.244,27
48.2738,24
48.3036,33
48.3333,29
48.3631,34
48.3929,27
48.4227,29
48.4525,41
48.4822,38
48.512,25
48.5418,34
48.5716,33
48.6014,27
48.6311,36
48.6609,31
48.6907,46
48.7205,43
48.7503,47
48.78,32
48.8098,47
48.8396,41
48.8694,73
48.8992,46
48.9289,47
48.9587,49
48.9885,45
49.0183,46
49.0481,49
49.0778,37
49.1076,47
49.1374,37
49.1672,49
49.197,41
49.2267,49
49.2565,40
49.2863,40
49.3161,36
49.3459,47
49.3756,45
49.4054,48
49.4352,30
49.465,46
49.4948,36
49.5245,45
49.5543,37
49.5841,32
49.6139,30
49.6437,35
49.6734,26
49.7032,29
49.733,32
49.7628,21
49.7926,25
49.8223,21
49.8521,28
49.8819,32
49.9117,30
49.9415,24
49.9712,26
50.001,20
50.0308,16
50.0606,32
50.0904,19
50.1201,21
50.1499,25
50.1797,19
50.2095,14
50.2393,17
50.269,12
50.2988,16
50.3286,15
50.3584,11
50.3882,15
50.4179,13
50.4477,14
50.4775,19
50.5073,15
50.5371,16
50.5668,12
50.5966,11
50.6264,18
50.6562,16
50.686,15
50.7157,13
50.7455,16
50.7753,10
50.8051,8
50.8349,12
50.8646,10
50.8944,14
50.9242,17
50.954,9
50.9838,11
51.0135,12
51.0433,4
51.0731,10
51.1029,9
51.1327,4
51.1624,8
51.1922,13
51.222,11
51.2518,9
51.2816,6
51.3113,5
51.3411,2
51.3709,9
51.4007,3
51.4305,4
51.4602,5
51.49,5
51.5198,3
51.5496,8
51.5794,3
51.6091,6
51.6389,5
51.6687,6
51.6985,5
51.7283,9
51.758,2
51.7878,7
51.8176,7
51.8474,4
51.8772,6
51.9069,8
51.9367,7
51.9665,4
51.9963,6
52.0261,2
52.0558,5
52.0856,5
52.1154,6
52.1452,3
52.175,4
52.2047,3
52.2345,6
52.2643,6
52.2941,5
52.3239,5
52.3536,5
52.3834,2
52.4132,5
52.443,3
52.4728,7
52.5025,0
52.5323,3
52.5621,6
52.5919,4
52.6217,4
52.6514,2
52.6812,2
52.711,5
52.7408,4
52.7706,0
52.8003,4
52.8301,1
52.8599,2
52.8897,3
52.9195,4
52.9492,4
52.979,1
53.0088,1
53.0386,2
53.0684,4
53.0981,3
53.1279,0
53.1577,2
53.1875,3
53.2173,3
53.247,3
53.2768,3
53.3066,2
53.3364,5
53.3662,1
53.3959,2
53.4257,2
53.4555,3
53.4853,1
53.5151,0
53.5448,2
53.5746,0
53.6044,4
53.6342,2
53.664,1
53.6937,2
53.7235,0
53.7533,2
53.7831,1
53.8129,1
53.8426,3
53.8724,6
53.9022,4
53.932,2
53.9618,2
53.9915,1
54.0213,2
54.0511,2
54.0809,5
54.1107,0
54.1404,3
54.1702,2
54.2,1
54.2298,0
54.2596,0
54.2893,1
54.3191,3
54.3489,1
54.3787,0
54.4085,2
54.4382,0
54.468,2
54.4978,1
54.5276,5
54.5574,3
54.5871,2
54.6169,3
54.6467,0
54.6765,3
54.7063,1
54.736,2
54.7658,1
54.7956,6
54.8254,1
54.8552,0
54.8849,1
54.9147,2
54.9445,1
54.9743,0
55.0041,0
55.0338,1
55.0636,2
55.0934,0
55.1232,0
55.153,1
55.1827,1
55.2125,4
55.2423,1
55.2721,3
55.3019,2
55.3316,1
55.3614,2
55.3912,2
55.421,1
55.4508,2
55.4805,0
55.5103,0
55.5401,1
55.5699,1
55.5997,2
55.6294,2
55.6592,1
55.689,4
55.7188,0
55.7486,1
55.7783,0
55.8081,1
55.8379,0
55.8677,0
55.8975,2
55.9272,2
55.957,0
55.9868,0
56.0166,0
56.0464,1
56.0761,0
56.1059,0
56.1357,0
56.1655,2
56.1953,2
56.225,3
56.2548,2
56.2846,2
56.3144,1
56.3442,0
56.3739,0
56.4037,1
56.4335,1
56.4633,1
56.4931,1
56.5228,1
56.5526,1
56.5824,0
56.6122,1
56.642,0
56.6717,0
56.7015,4
56.7313,0
56.7611,0
56.7909,1
56.8206,0
56.8504,0
56.8802,0
56.91,0
56.9398,1
56.9695,0
56.9993,2
57.0291,1
57.0589,0
57.0887,0
57.1184,0
57.1482,1
57.178,1
57.2078,0
57.2376,2
57.2673,1
57.2971,1
57.3269,3
57.3567,1
57.3865,0
57.4162,0
57.446,0
57.4758,0
57.5056,1
57.5354,0
57.5651,3
57.5949,1
57.6247,0
57.6545,0
57.6843,1
57.714,0
57.7438,0
57.7736,1
57.8034,0
57.8332,0
57.8629,0
57.8927,1
57.9225,0
57.9523,0
57.9821,1
58.0118,0
58.0416,0
58.0714,3
58.1012,0
58.131,2
58.1607,1
58.1905,3
58.2203,0
58.2501,0
58.2799,2
58.3096,1
58.3394,1
58.3692,1
58.399,2
58.4288,3
58.4585,1
58.4883,0
58.5181,1
58.5479,0
58.5777,0
58.6074,0
58.6372,0
58.667,0
58.6968,0
58.7266,0
58.7563,1
58.7861,2
58.8159,0
58.8457,0
58.8755,0
58.9052,0
58.935,1
58.9648,0
58.9946,1
59.0244,1
59.0541,0
59.0839,2
59.1137,1
59.1435,3
59.1733,3
59.203,4
59.2328,7
59.2626,5
59.2924,9
59.3222,7
59.3519,16
59.3817,11
59.4115,16
59.4413,15
59.4711,23
59.5008,32
59.5306,20
59.5604,26
59.5902,31
59.62,14
59.6497,26
59.6795,10
59.7093,8
59.7391,8
59.7689,8
59.7986,5
59.8284,6
59.8582,3
59.888,2
59.9178,4
59.9475,3
59.9773,0
60.0071,1
60.0369,1
60.0667,0
60.0964,1
60.1262,0
60.156,0
60.1858,0
60.2156,1
60.2453,0
60.2751,0
60.3049,0
60.3347,0
60.3645,0
60.3942,0
60.424,0
60.4538,0
60.4836,0
60.5134,0
60.5431,0
60.5729,0
60.6027,0
60.6325,0
60.6623,0
60.692,0
60.7218,0
60.7516,0
60.7814,0
60.8112,0
60.8409,0
60.8707,0
60.9005,0
60.9303,0
60.9601,0
60.9898,0
61.0196,0
