Energy 	Counts
0.0004,0
0.03018,0
0.05996,0
0.08974,0
0.11952,0
0.1493,0
0.17908,0
0.20886,0
0.23864,0
0.26842,0
0.2982,0
0.32798,0
0.35776,0
0.38754,7
0.41732,11
0.4471,12
0.47688,11
0.50666,15
0.53644,19
0.56622,6
0.596,9
0.62578,8
0.65556,9
0.68534,9
0.71512,5
0.7449,19
0.77468,7
0.80446,10
0.83424,12
0.86402,7
0.8938,8
0.92358,8
0.95336,10
0.98314,10
1.01292,6
1.0427,7
1.07248,13
1.10226,4
1.13204,13
1.16182,6
1.1916,5
1.22138,4
1.25116,8
1.28094,12
1.31072,5
1.3405,13
1.37028,15
1.40006,7
1.42984,12
1.45962,4
1.4894,10
1.51918,17
1.54896,5
1.57874,12
1.60852,11
1.6383,15
1.66808,8
1.69786,8
1.72764,7
1.75742,12
1.7872,12
1.81698,8
1.84676,10
1.87654,9
1.90632,10
1.9361,11
1.96588,11
1.99566,11
2.02544,14
2.05522,10
2.085,11
2.11478,18
2.14456,14
2.17434,21
2.20412,33
2.2339,37
2.26368,41
2.29346,52
2.32324,43
2.35302,24
2.3828,23
2.41258,17
2.44236,25
2.47214,7
2.50192,11
2.5317,15
2.56148,9
2.59126,8
2.62104,11
2.65082,14
2.6806,16
2.71038,5
2.74016,11
2.76994,11
2.79972,14
2.8295,12
2.85928,16
2.88906,9
2.91884,22
2.94862,26
2.9784,23
3.00818,21
3.03796,16
3.06774,13
3.09752,13
3.1273,6
3.15708,12
3.18686,7
3.21664,3
3.24642,6
3.2762,8
3.30598,5
3.33576,9
3.36554,7
3.39532,5
3.4251,3
3.45488,5
3.48466,9
3.51444,4
3.54422,8
3.574,7
3.60378,3
3.63356,8
3.66334,5
3.69312,5
3.7229,12
3.75268,5
3.78246,12
3.81224,8
3.84202,7
3.8718,3
3.90158,9
3.93136,4
3.96114,6
3.99092,13
4.0207,8
4.05048,6
4.08026,3
4.11004,8
4.13982,12
4.1696,4
4.19938,6
4.22916,6
4.25894,10
4.28872,13
4.3185,10
4.34828,6
4.37806,12
4.40784,6
4.43762,10
4.4674,14
4.49718,14
4.52696,17
4.55674,17
4.58652,27
4.6163,14
4.64608,14
4.67586,22
4.70564,14
4.73542,22
4.7652,13
4.79498,17
4.82476,15
4.85454,9
4.88432,14
4.9141,11
4.94388,10
4.97366,13
5.00344,14
5.03322,8
5.063,8
5.09278,8
5.12256,6
5.15234,12
5.18212,15
5.2119,14
5.24168,12
5.27146,16
5.30124,10
5.33102,17
5.3608,12
5.39058,16
5.42036,14
5.45014,23
5.47992,14
5.5097,17
5.53948,12
5.56926,19
5.59904,14
5.62882,16
5.6586,9
5.68838,12
5.71816,14
5.74794,16
5.77772,14
5.8075,20
5.83728,13
5.86706,18
5.89684,19
5.92662,28
5.9564,19
5.98618,13
6.01596,29
6.04574,31
6.07552,36
6.1053,42
6.13508,70
6.16486,145
6.19464,270
6.22442,614
6.2542,1094
6.28398,1878
6.31376,2697
6.34354,3664
6.37332,4322
6.4031,4309
6.43288,3923
6.46266,3082
6.49244,2231
6.52222,1339
6.552,757
6.58178,372
6.61156,149
6.64134,54
6.67112,35
6.7009,18
6.73068,15
6.76046,25
6.79024,25
6.82002,49
6.8498,64
6.87958,136
6.90936,218
6.93914,335
6.96892,491
6.9987,582
7.02848,719
7.05826,700
7.08804,624
7.11782,553
7.1476,390
7.17738,232
7.20716,142
7.23694,79
7.26672,36
7.2965,12
7.32628,13
7.35606,5
7.38584,3
7.41562,6
7.4454,7
7.47518,1
7.50496,3
7.53474,2
7.56452,4
7.5943,3
7.62408,7
7.65386,5
7.68364,5
7.71342,5
7.7432,4
7.77298,5
7.80276,7
7.83254,2
7.86232,5
7.8921,4
7.92188,2
7.95166,11
7.98144,4
8.01122,5
8.041,4
8.07078,8
8.10056,14
8.13034,9
8.16012,7
8.1899,9
8.21968,5
8.24946,4
8.27924,7
8.30902,5
8.3388,6
8.36858,7
8.39836,8
8.42814,15
8.45792,7
8.4877,8
8.51748,8
8.54726,7
8.57704,11
8.60682,15
8.6366,10
8.66638,8
8.69616,11
8.72594,9
8.75572,11
8.7855,7
8.81528,4
8.84506,7
8.87484,2
8.90462,4
8.9344,7
8.96418,9
8.99396,9
9.02374,7
9.05352,4
9.0833,5
9.11308,3
9.14286,5
9.17264,5
9.20242,1
9.2322,2
9.26198,8
9.29176,5
9.32154,5
9.35132,0
9.3811,1
9.41088,6
9.44066,7
9.47044,5
9.50022,12
9.53,3
9.55978,7
9.58956,4
9.61934,4
9.64912,4
9.6789,5
9.70868,6
9.73846,2
9.76824,8
9.79802,4
9.8278,5
9.85758,7
9.88736,5
9.91714,11
9.94692,7
9.9767,8
10.0065,3
10.0363,7
10.066,7
10.0958,5
10.1256,9
10.1554,2
10.1852,5
10.2149,4
10.2447,4
10.2745,6
10.3043,8
10.3341,2
10.3638,2
10.3936,4
10.4234,11
10.4532,10
10.483,14
10.5127,3
10.5425,5
10.5723,11
10.6021,8
10.6319,4
10.6616,4
10.6914,7
10.7212,5
10.751,4
10.7808,8
10.8105,4
10.8403,2
10.8701,8
10.8999,12
10.9297,4
10.9594,6
10.9892,1
11.019,10
11.0488,5
11.0786,1
11.1083,6
11.1381,6
11.1679,3
11.1977,8
11.2275,6
11.2572,6
11.287,7
11.3168,4
11.3466,6
11.3764,9
11.4061,7
11.4359,4
11.4657,6
11.4955,7
11.5253,4
11.555,4
11.5848,1
11.6146,3
11.6444,4
11.6742,4
11.7039,0
11.7337,7
11.7635,2
11.7933,7
11.8231,9
11.8528,2
11.8826,7
11.9124,4
11.9422,4
11.972,4
12.0017,10
12.0315,3
12.0613,2
12.0911,5
12.1209,6
12.1506,6
12.1804,2
12.2102,9
12.24,4
12.2698,8
12.2995,4
12.3293,6
12.3591,1
12.3889,9
12.4187,6
12.4484,10
12.4782,11
12.508,8
12.5378,10
12.5676,4
12.5973,9
12.6271,5
12.6569,3
12.6867,2
12.7165,4
12.7462,4
12.776,4
12.8058,6
12.8356,4
12.8654,4
12.8951,8
12.9249,6
12.9547,6
12.9845,7
13.0143,7
13.044,9
13.0738,7
13.1036,6
13.1334,6
13.1632,6
13.1929,4
13.2227,6
13.2525,8
13.2823,4
13.3121,3
13.3418,8
13.3716,8
13.4014,7
13.4312,5
13.461,4
13.4907,6
13.5205,6
13.5503,6
13.5801,8
13.6099,4
13.6396,4
13.6694,6
13.6992,9
13.729,11
13.7588,7
13.7885,5
13.8183,5
13.8481,3
13.8779,11
13.9077,6
13.9374,8
13.9672,7
13.997,11
14.0268,5
14.0566,4
14.0863,9
14.1161,7
14.1459,2
14.1757,6
14.2055,7
14.2352,9
14.265,6
14.2948,7
14.3246,1
14.3544,3
14.3841,6
14.4139,5
14.4437,5
14.4735,3
14.5033,6
14.533,7
14.5628,5
14.5926,2
14.6224,7
14.6522,6
14.6819,8
14.7117,6
14.7415,2
14.7713,5
14.8011,6
14.8308,7
14.8606,13
14.8904,6
14.9202,4
14.95,4
14.9797,8
15.0095,5
15.0393,8
15.0691,3
15.0989,2
15.1286,6
15.1584,7
15.1882,6
15.218,9
15.2478,3
15.2775,5
15.3073,3
15.3371,6
15.3669,5
15.3967,4
15.4264,5
15.4562,7
15.486,5
15.5158,7
15.5456,11
15.5753,5
15.6051,3
15.6349,6
15.6647,0
15.6945,3
15.7242,4
15.754,1
15.7838,4
15.8136,6
15.8434,11
15.8731,6
15.9029,6
15.9327,5
15.9625,7
15.9923,9
16.022,5
16.0518,6
16.0816,8
16.1114,10
16.1412,8
16.1709,11
16.2007,5
16.2305,6
16.2603,8
16.2901,8
16.3198,6
16.3496,8
16.3794,8
16.4092,9
16.439,5
16.4687,7
16.4985,10
16.5283,4
16.5581,11
16.5879,12
16.6176,9
16.6474,7
16.6772,6
16.707,8
16.7368,8
16.7665,6
16.7963,2
16.8261,4
16.8559,7
16.8857,6
16.9154,11
16.9452,6
16.975,5
17.0048,4
17.0346,8
17.0643,9
17.0941,7
17.1239,6
17.1537,9
17.1835,10
17.2132,8
17.243,5
17.2728,2
17.3026,6
17.3324,8
17.3621,5
17.3919,9
17.4217,8
17.4515,8
17.4813,6
17.511,7
17.5408,6
17.5706,10
17.6004,9
17.6302,7
17.6599,6
17.6897,8
17.7195,5
17.7493,6
17.7791,6
17.8088,9
17.8386,6
17.8684,9
17.8982,11
17.928,7
17.9577,1
17.9875,2
18.0173,5
18.0471,6
18.0769,12
18.1066,8
18.1364,7
18.1662,13
18.196,7
18.2258,5
18.2555,6
18.2853,8
18.3151,3
18.3449,6
18.3747,6
18.4044,11
18.4342,4
18.464,12
18.4938,6
18.5236,8
18.5533,11
18.5831,5
18.6129,8
18.6427,9
18.6725,12
18.7022,10
18.732,11
18.7618,11
18.7916,20
18.8214,22
18.8511,20
18.8809,16
18.9107,19
18.9405,11
18.9703,13
19,14
19.0298,10
19.0596,11
19.0894,17
19.1192,16
19.1489,19
19.1787,8
19.2085,16
19.2383,13
19.2681,12
19.2978,11
19.3276,6
19.3574,9
19.3872,12
19.417,12
19.4467,10
19.4765,11
19.5063,8
19.5361,13
19.5659,7
19.5956,9
19.6254,11
19.6552,8
19.685,6
19.7148,7
19.7445,7
19.7743,11
19.8041,12
19.8339,7
19.8637,13
19.8934,9
19.9232,6
19.953,19
19.9828,14
20.0126,16
20.0423,25
20.0721,19
20.1019,22
20.1317,24
20.1615,23
20.1912,27
20.221,26
20.2508,19
20.2806,23
20.3104,17
20.3401,8
20.3699,22
20.3997,13
20.4295,17
20.4593,5
20.489,9
20.5188,7
20.5486,13
20.5784,4
20.6082,10
20.6379,3
20.6677,9
20.6975,3
20.7273,6
20.7571,8
20.7868,11
20.8166,6
20.8464,4
20.8762,10
20.906,6
20.9357,7
20.9655,10
20.9953,4
21.0251,13
21.0549,9
21.0846,6
21.1144,9
21.1442,5
21.174,8
21.2038,5
21.2335,11
21.2633,9
21.2931,10
21.3229,5
21.3527,6
21.3824,10
21.4122,3
21.442,8
21.4718,12
21.5016,10
21.5313,6
21.5611,7
21.5909,11
21.6207,7
21.6505,7
21.6802,4
21.71,2
21.7398,6
21.7696,8
21.7994,9
21.8291,4
21.8589,4
21.8887,3
21.9185,9
21.9483,4
21.978,7
22.0078,7
22.0376,12
22.0674,6
22.0972,9
22.1269,8
22.1567,8
22.1865,6
22.2163,1
22.2461,13
22.2758,7
22.3056,6
22.3354,4
22.3652,4
22.395,6
22.4247,7
22.4545,11
22.4843,7
22.5141,4
22.5439,2
22.5736,7
22.6034,7
22.6332,9
22.663,13
22.6928,19
22.7225,12
22.7523,11
22.7821,13
22.8119,16
22.8417,13
22.8714,13
22.9012,16
22.931,10
22.9608,12
22.9906,10
23.0203,12
23.0501,10
23.0799,9
23.1097,6
23.1395,4
23.1692,6
23.199,7
23.2288,10
23.2586,4
23.2884,6
23.3181,4
23.3479,4
23.3777,6
23.4075,7
23.4373,3
23.467,3
23.4968,8
23.5266,1
23.5564,5
23.5862,2
23.6159,5
23.6457,3
23.6755,4
23.7053,2
23.7351,6
23.7648,4
23.7946,2
23.8244,5
23.8542,6
23.884,6
23.9137,3
23.9435,3
23.9733,5
24.0031,5
24.0329,7
24.0626,4
24.0924,6
24.1222,4
24.152,4
24.1818,7
24.2115,7
24.2413,4
24.2711,7
24.3009,3
24.3307,7
24.3604,0
24.3902,11
24.42,5
24.4498,2
24.4796,5
24.5093,3
24.5391,8
24.5689,7
24.5987,10
24.6285,4
24.6582,6
24.688,3
24.7178,3
24.7476,6
24.7774,4
24.8071,5
24.8369,5
24.8667,15
24.8965,3
24.9263,2
24.956,4
24.9858,2
25.0156,3
25.0454,10
25.0752,7
25.1049,6
25.1347,1
25.1645,4
25.1943,7
25.2241,1
25.2538,9
25.2836,6
25.3134,3
25.3432,4
25.373,6
25.4027,5
25.4325,8
25.4623,6
25.4921,3
25.5219,6
25.5516,5
25.5814,7
25.6112,4
25.641,3
25.6708,9
25.7005,3
25.7303,4
25.7601,6
25.7899,9
25.8197,5
25.8494,2
25.8792,3
25.909,6
25.9388,5
25.9686,4
25.9983,1
26.0281,1
26.0579,5
26.0877,0
26.1175,6
26.1472,3
26.177,2
26.2068,6
26.2366,5
26.2664,7
26.2961,5
26.3259,5
26.3557,3
26.3855,3
26.4153,1
26.445,2
26.4748,3
26.5046,1
26.5344,3
26.5642,6
26.5939,2
26.6237,8
26.6535,8
26.6833,8
26.7131,2
26.7428,4
26.7726,8
26.8024,4
26.8322,3
26.862,2
26.8917,6
26.9215,6
26.9513,7
26.9811,4
27.0109,3
27.0406,3
27.0704,5
27.1002,2
27.13,7
27.1598,2
27.1895,5
27.2193,6
27.2491,4
27.2789,2
27.3087,6
27.3384,5
27.3682,1
27.398,2
27.4278,3
27.4576,5
27.4873,1
27.5171,2
27.5469,5
27.5767,3
27.6065,4
27.6362,3
27.666,3
27.6958,1
27.7256,3
27.7554,3
27.7851,3
27.8149,4
27.8447,1
27.8745,4
27.9043,5
27.934,4
27.9638,3
27.9936,1
28.0234,2
28.0532,0
28.0829,2
28.1127,1
28.1425,3
28.1723,2
28.2021,4
28.2318,3
28.2616,2
28.2914,1
28.3212,4
28.351,2
28.3807,0
28.4105,1
28.4403,2
28.4701,1
28.4999,1
28.5296,2
28.5594,3
28.5892,4
28.619,0
28.6488,3
28.6785,2
28.7083,2
28.7381,4
28.7679,0
28.7977,2
28.8274,1
28.8572,2
28.887,1
28.9168,1
28.9466,3
28.9763,1
29.0061,1
29.0359,0
29.0657,0
29.0955,4
29.1252,0
29.155,1
29.1848,3
29.2146,1
29.2444,2
29.2741,1
29.3039,1
29.3337,0
29.3635,1
29.3933,0
29.423,1
29.4528,2
29.4826,2
29.5124,2
29.5422,0
29.5719,0
29.6017,0
29.6315,2
29.6613,0
29.6911,1
29.7208,1
29.7506,0
29.7804,2
29.8102,2
29.84,2
29.8697,2
29.8995,0
29.9293,2
29.9591,2
29.9889,1
30.0186,0
30.0484,0
30.0782,1
30.108,3
30.1378,2
30.1675,2
30.1973,0
30.2271,1
30.2569,1
30.2867,0
30.3164,2
30.3462,2
30.376,0
30.4058,0
30.4356,1
30.4653,0
30.4951,1
30.5249,1
30.5547,1
30.5845,0
30.6142,1
30.644,1
30.6738,0
30.7036,0
30.7334,2
30.7631,1
30.7929,0
30.8227,0
30.8525,1
30.8823,0
30.912,0
30.9418,0
30.9716,0
31.0014,0
31.0312,1
31.0609,0
31.0907,1
31.1205,0
31.1503,0
31.1801,1
31.2098,0
31.2396,0
31.2694,0
31.2992,0
31.329,0
31.3587,0
31.3885,0
31.4183,0
31.4481,0
31.4779,0
31.5076,0
31.5374,0
31.5672,2
31.597,0
31.6268,1
31.6565,2
31.6863,0
31.7161,0
31.7459,0
31.7757,0
31.8054,0
31.8352,0
31.865,0
31.8948,0
31.9246,1
31.9543,0
31.9841,0
32.0139,1
32.0437,0
32.0735,0
32.1032,0
32.133,1
32.1628,1
32.1926,0
32.2224,0
32.2521,0
32.2819,0
32.3117,0
32.3415,0
32.3713,1
32.401,0
32.4308,0
32.4606,0
32.4904,0
32.5202,0
32.5499,0
32.5797,1
32.6095,0
32.6393,0
32.6691,0
32.6988,0
32.7286,0
32.7584,0
32.7882,0
32.818,0
32.8477,0
32.8775,2
32.9073,0
32.9371,0
32.9669,0
32.9966,0
33.0264,0
33.0562,0
33.086,0
33.1158,0
33.1455,0
33.1753,0
33.2051,0
33.2349,0
33.2647,0
33.2944,0
33.3242,1
33.354,0
33.3838,0
33.4136,0
33.4433,0
33.4731,1
33.5029,0
33.5327,0
33.5625,0
33.5922,0
33.622,0
33.6518,0
33.6816,0
33.7114,0
33.7411,0
33.7709,0
33.8007,0
33.8305,0
33.8603,0
33.89,0
33.9198,0
33.9496,0
33.9794,0
34.0092,0
34.0389,0
34.0687,0
34.0985,0
34.1283,0
34.1581,0
34.1878,0
34.2176,0
34.2474,0
34.2772,0
34.307,0
34.3367,0
34.3665,0
34.3963,0
34.4261,0
34.4559,0
34.4856,0
34.5154,0
34.5452,0
34.575,0
34.6048,0
34.6345,0
34.6643,0
34.6941,0
34.7239,0
34.7537,0
34.7834,0
34.8132,0
34.843,0
34.8728,0
34.9026,0
34.9323,0
34.9621,0
34.9919,0
35.0217,0
35.0515,0
35.0812,0
35.111,0
35.1408,0
35.1706,0
35.2004,0
35.2301,0
35.2599,0
35.2897,0
35.3195,0
35.3493,0
35.379,0
35.4088,0
35.4386,0
35.4684,0
35.4982,0
35.5279,0
35.5577,0
35.5875,0
35.6173,0
35.6471,0
35.6768,0
35.7066,0
35.7364,0
35.7662,0
35.796,0
35.8257,0
35.8555,0
35.8853,0
35.9151,0
35.9449,0
35.9746,0
36.0044,0
36.0342,0
36.064,0
36.0938,0
36.1235,0
36.1533,0
36.1831,0
36.2129,0
36.2427,0
36.2724,0
36.3022,0
36.332,0
36.3618,0
36.3916,0
36.4213,0
36.4511,0
36.4809,0
36.5107,0
36.5405,0
36.5702,0
36.6,0
36.6298,0
36.6596,0
36.6894,0
36.7191,0
36.7489,0
36.7787,0
36.8085,0
36.8383,0
36.868,0
36.8978,0
36.9276,0
36.9574,0
36.9872,0
37.0169,1
37.0467,0
37.0765,0
37.1063,0
37.1361,0
37.1658,0
37.1956,0
37.2254,1
37.2552,0
37.285,0
37.3147,0
37.3445,0
37.3743,0
37.4041,0
37.4339,0
37.4636,0
37.4934,0
37.5232,1
37.553,0
37.5828,0
37.6125,0
37.6423,0
37.6721,0
37.7019,0
37.7317,0
37.7614,0
37.7912,0
37.821,0
37.8508,0
37.8806,0
37.9103,0
37.9401,0
37.9699,0
37.9997,0
38.0295,0
38.0592,0
38.089,0
38.1188,0
38.1486,0
38.1784,0
38.2081,0
38.2379,0
38.2677,0
38.2975,0
38.3273,0
38.357,0
38.3868,0
38.4166,0
38.4464,0
38.4762,0
38.5059,0
38.5357,0
38.5655,0
38.5953,0
38.6251,0
38.6548,0
38.6846,0
38.7144,1
38.7442,0
38.774,0
38.8037,0
38.8335,0
38.8633,0
38.8931,0
38.9229,0
38.9526,0
38.9824,0
39.0122,0
39.042,0
39.0718,0
39.1015,0
39.1313,0
39.1611,0
39.1909,0
39.2207,0
39.2504,0
39.2802,0
39.31,0
39.3398,0
39.3696,0
39.3993,0
39.4291,0
39.4589,0
39.4887,0
39.5185,0
39.5482,0
39.578,0
39.6078,0
39.6376,0
39.6674,0
39.6971,0
39.7269,0
39.7567,0
39.7865,0
39.8163,0
39.846,0
39.8758,0
39.9056,0
39.9354,0
39.9652,0
39.9949,0
40.0247,0
40.0545,0
40.0843,0
40.1141,0
40.1438,0
40.1736,0
40.2034,0
40.2332,0
40.263,0
40.2927,0
40.3225,0
40.3523,0
40.3821,0
40.4119,0
40.4416,0
40.4714,0
40.5012,0
40.531,0
40.5608,0
40.5905,0
40.6203,0
40.6501,0
40.6799,0
40.7097,0
40.7394,0
40.7692,0
40.799,0
40.8288,0
40.8586,0
40.8883,0
40.9181,0
40.9479,0
40.9777,0
41.0075,0
41.0372,0
41.067,0
41.0968,0
41.1266,0
41.1564,0
41.1861,0
41.2159,0
41.2457,0
41.2755,0
41.3053,0
41.335,0
41.3648,0
41.3946,0
41.4244,0
41.4542,0
41.4839,0
41.5137,0
41.5435,0
41.5733,0
41.6031,0
41.6328,0
41.6626,0
41.6924,0
41.7222,0
41.752,0
41.7817,0
41.8115,0
41.8413,0
41.8711,0
41.9009,0
41.9306,0
41.9604,0
41.9902,0
42.02,0
42.0498,0
42.0795,0
42.1093,1
42.1391,0
42.1689,0
42.1987,0
42.2284,0
42.2582,0
42.288,0
42.3178,0
42.3476,0
42.3773,0
42.4071,0
42.4369,0
42.4667,0
42.4965,0
42.5262,0
42.556,0
42.5858,0
42.6156,0
42.6454,0
42.6751,1
42.7049,0
42.7347,0
42.7645,0
42.7943,0
42.824,0
42.8538,0
42.8836,0
42.9134,0
42.9432,0
42.9729,0
43.0027,0
43.0325,0
43.0623,0
43.0921,0
43.1218,0
43.1516,1
43.1814,0
43.2112,1
43.241,0
43.2707,0
43.3005,0
43.3303,0
43.3601,0
43.3899,0
43.4196,0
43.4494,0
43.4792,0
43.509,0
43.5388,0
43.5685,0
43.5983,0
43.6281,0
43.6579,1
43.6877,0
43.7174,0
43.7472,0
43.777,0
43.8068,0
43.8366,1
43.8663,0
43.8961,0
43.9259,0
43.9557,0
43.9855,0
44.0152,0
44.045,0
44.0748,0
44.1046,0
44.1344,0
44.1641,0
44.1939,0
44.2237,0
44.2535,0
44.2833,0
44.313,0
44.3428,0
44.3726,0
44.4024,0
44.4322,0
44.4619,0
44.4917,0
44.5215,0
44.5513,0
44.5811,0
44.6108,0
44.6406,0
44.6704,0
44.7002,0
44.73,0
44.7597,0
44.7895,0
44.8193,0
44.8491,0
44.8789,0
44.9086,0
44.9384,0
44.9682,0
44.998,0
45.0278,0
45.0575,0
45.0873,0
45.1171,0
45.1469,0
45.1767,0
45.2064,0
45.2362,0
45.266,0
45.2958,0
45.3256,0
45.3553,0
45.3851,0
45.4149,0
45.4447,0
45.4745,0
45.5042,0
45.534,0
45.5638,0
45.5936,0
45.6234,0
45.6531,0
45.6829,0
45.7127,0
45.7425,0
45.7723,0
45.802,0
45.8318,0
45.8616,0
45.8914,0
45.9212,0
45.9509,0
45.9807,1
46.0105,0
46.0403,0
46.0701,0
46.0998,0
46.1296,0
46.1594,0
46.1892,0
46.219,0
46.2487,0
46.2785,0
46.3083,0
46.3381,0
46.3679,0
46.3976,0
46.4274,0
46.4572,0
46.487,0
46.5168,0
46.5465,0
46.5763,0
46.6061,0
46.6359,0
46.6657,0
46.6954,0
46.7252,0
46.755,0
46.7848,0
46.8146,0
46.8443,0
46.8741,0
46.9039,0
46.9337,0
46.9635,0
46.9932,0
47.023,0
47.0528,0
47.0826,0
47.1124,0
47.1421,0
47.1719,0
47.2017,0
47.2315,0
47.2613,0
47.291,0
47.3208,0
47.3506,0
47.3804,0
47.4102,0
47.4399,0
47.4697,0
47.4995,0
47.5293,0
47.5591,0
47.5888,0
47.6186,0
47.6484,0
47.6782,0
47.708,0
47.7377,0
47.7675,0
47.7973,0
47.8271,0
47.8569,0
47.8866,0
47.9164,1
47.9462,0
47.976,0
48.0058,0
48.0355,0
48.0653,0
48.0951,0
48.1249,0
48.1547,0
48.1844,0
48.2142,1
48.244,0
48.2738,0
48.3036,0
48.3333,0
48.3631,0
48.3929,0
48.4227,0
48.4525,0
48.4822,0
48.512,0
48.5418,0
48.5716,0
48.6014,0
48.6311,0
48.6609,0
48.6907,0
48.7205,0
48.7503,1
48.78,0
48.8098,0
48.8396,0
48.8694,0
48.8992,0
48.9289,0
48.9587,0
48.9885,0
49.0183,0
49.0481,0
49.0778,0
49.1076,0
49.1374,0
49.1672,0
49.197,0
49.2267,0
49.2565,0
49.2863,0
49.3161,0
49.3459,0
49.3756,0
49.4054,0
49.4352,0
49.465,0
49.4948,0
49.5245,0
49.5543,0
49.5841,0
49.6139,0
49.6437,0
49.6734,0
49.7032,0
49.733,0
49.7628,0
49.7926,0
49.8223,1
49.8521,0
49.8819,0
49.9117,0
49.9415,0
49.9712,0
50.001,0
50.0308,1
50.0606,0
50.0904,0
50.1201,0
50.1499,0
50.1797,0
50.2095,0
50.2393,1
50.269,0
50.2988,0
50.3286,0
50.3584,0
50.3882,0
50.4179,0
50.4477,0
50.4775,0
50.5073,0
50.5371,0
50.5668,0
50.5966,0
50.6264,0
50.6562,0
50.686,0
50.7157,0
50.7455,1
50.7753,0
50.8051,0
50.8349,0
50.8646,0
50.8944,0
50.9242,0
50.954,1
50.9838,0
51.0135,0
51.0433,0
51.0731,1
51.1029,0
51.1327,0
51.1624,0
51.1922,1
51.222,0
51.2518,0
51.2816,0
51.3113,0
51.3411,0
51.3709,0
51.4007,0
51.4305,0
51.4602,0
51.49,0
51.5198,0
51.5496,0
51.5794,0
51.6091,0
51.6389,0
51.6687,0
51.6985,0
51.7283,0
51.758,0
51.7878,0
51.8176,0
51.8474,0
51.8772,0
51.9069,0
51.9367,0
51.9665,0
51.9963,0
52.0261,0
52.0558,0
52.0856,0
52.1154,0
52.1452,0
52.175,0
52.2047,0
52.2345,0
52.2643,0
52.2941,0
52.3239,0
52.3536,0
52.3834,0
52.4132,0
52.443,0
52.4728,0
52.5025,0
52.5323,0
52.5621,0
52.5919,0
52.6217,0
52.6514,0
52.6812,0
52.711,0
52.7408,0
52.7706,0
52.8003,0
52.8301,0
52.8599,1
52.8897,0
52.9195,0
52.9492,0
52.979,0
53.0088,0
53.0386,0
53.0684,0
53.0981,0
53.1279,0
53.1577,0
53.1875,0
53.2173,0
53.247,0
53.2768,0
53.3066,0
53.3364,0
53.3662,0
53.3959,0
53.4257,0
53.4555,0
53.4853,0
53.5151,0
53.5448,0
53.5746,0
53.6044,0
53.6342,0
53.664,0
53.6937,0
53.7235,0
53.7533,0
53.7831,0
53.8129,0
53.8426,0
53.8724,0
53.9022,0
53.932,0
53.9618,0
53.9915,0
54.0213,0
54.0511,0
54.0809,0
54.1107,0
54.1404,0
54.1702,0
54.2,0
54.2298,0
54.2596,0
54.2893,0
54.3191,0
54.3489,0
54.3787,0
54.4085,0
54.4382,0
54.468,0
54.4978,0
54.5276,0
54.5574,0
54.5871,0
54.6169,0
54.6467,0
54.6765,0
54.7063,0
54.736,0
54.7658,0
54.7956,0
54.8254,0
54.8552,0
54.8849,0
54.9147,0
54.9445,0
54.9743,0
55.0041,0
55.0338,0
55.0636,0
55.0934,0
55.1232,0
55.153,0
55.1827,0
55.2125,0
55.2423,0
55.2721,0
55.3019,0
55.3316,0
55.3614,0
55.3912,0
55.421,0
55.4508,0
55.4805,0
55.5103,0
55.5401,0
55.5699,0
55.5997,0
55.6294,0
55.6592,0
55.689,0
55.7188,0
55.7486,0
55.7783,0
55.8081,0
55.8379,0
55.8677,0
55.8975,0
55.9272,0
55.957,0
55.9868,0
56.0166,0
56.0464,1
56.0761,0
56.1059,0
56.1357,0
56.1655,0
56.1953,0
56.225,0
56.2548,0
56.2846,0
56.3144,0
56.3442,0
56.3739,0
56.4037,0
56.4335,0
56.4633,0
56.4931,0
56.5228,0
56.5526,1
56.5824,0
56.6122,0
56.642,0
56.6717,0
56.7015,0
56.7313,0
56.7611,0
56.7909,0
56.8206,0
56.8504,0
56.8802,0
56.91,0
56.9398,0
56.9695,0
56.9993,0
57.0291,0
57.0589,0
57.0887,0
57.1184,0
57.1482,0
57.178,0
57.2078,0
57.2376,0
57.2673,0
57.2971,0
57.3269,0
57.3567,0
57.3865,0
57.4162,0
57.446,0
57.4758,0
57.5056,0
57.5354,0
57.5651,0
57.5949,0
57.6247,0
57.6545,0
57.6843,0
57.714,0
57.7438,0
57.7736,0
57.8034,0
57.8332,0
57.8629,0
57.8927,1
57.9225,0
57.9523,0
57.9821,0
58.0118,0
58.0416,0
58.0714,0
58.1012,0
58.131,0
58.1607,0
58.1905,0
58.2203,0
58.2501,0
58.2799,0
58.3096,0
58.3394,0
58.3692,0
58.399,0
58.4288,0
58.4585,0
58.4883,0
58.5181,0
58.5479,0
58.5777,0
58.6074,0
58.6372,0
58.667,0
58.6968,0
58.7266,0
58.7563,0
58.7861,0
58.8159,0
58.8457,0
58.8755,0
58.9052,0
58.935,0
58.9648,0
58.9946,0
59.0244,0
59.0541,0
59.0839,0
59.1137,0
59.1435,0
59.1733,0
59.203,0
59.2328,0
59.2626,0
59.2924,0
59.3222,1
59.3519,0
59.3817,0
59.4115,0
59.4413,0
59.4711,1
59.5008,0
59.5306,0
59.5604,1
59.5902,1
59.62,0
59.6497,0
59.6795,0
59.7093,2
59.7391,0
59.7689,0
59.7986,0
59.8284,0
59.8582,0
59.888,0
59.9178,0
59.9475,0
59.9773,0
60.0071,0
60.0369,0
60.0667,0
60.0964,0
60.1262,0
60.156,0
60.1858,0
60.2156,0
60.2453,0
60.2751,0
60.3049,0
60.3347,0
60.3645,0
60.3942,0
60.424,0
60.4538,0
60.4836,0
60.5134,0
60.5431,0
60.5729,0
60.6027,0
60.6325,0
60.6623,0
60.692,0
60.7218,0
60.7516,0
60.7814,0
60.8112,0
60.8409,0
60.8707,0
60.9005,0
60.9303,0
60.9601,0
60.9898,0
61.0196,0
