Energy 	Counts
0.0004,0
0.03018,0
0.05996,0
0.08974,0
0.11952,0
0.1493,0
0.17908,0
0.20886,0
0.23864,0
0.26842,0
0.2982,0
0.32798,0
0.35776,6
0.38754,7
0.41732,19
0.4471,22
0.47688,15
0.50666,20
0.53644,17
0.56622,14
0.596,21
0.62578,14
0.65556,16
0.68534,15
0.71512,12
0.7449,12
0.77468,18
0.80446,14
0.83424,8
0.86402,10
0.8938,13
0.92358,15
0.95336,3
0.98314,9
1.01292,11
1.0427,13
1.07248,13
1.10226,9
1.13204,16
1.16182,10
1.1916,19
1.22138,5
1.25116,12
1.28094,8
1.31072,5
1.3405,11
1.37028,10
1.40006,4
1.42984,11
1.45962,11
1.4894,8
1.51918,10
1.54896,8
1.57874,10
1.60852,5
1.6383,8
1.66808,8
1.69786,10
1.72764,14
1.75742,9
1.7872,7
1.81698,4
1.84676,7
1.87654,6
1.90632,12
1.9361,10
1.96588,6
1.99566,5
2.02544,13
2.05522,7
2.085,7
2.11478,11
2.14456,9
2.17434,7
2.20412,8
2.2339,4
2.26368,10
2.29346,7
2.32324,7
2.35302,9
2.3828,8
2.41258,12
2.44236,10
2.47214,7
2.50192,6
2.5317,5
2.56148,10
2.59126,14
2.62104,11
2.65082,17
2.6806,7
2.71038,12
2.74016,10
2.76994,6
2.79972,11
2.8295,25
2.85928,26
2.88906,23
2.91884,28
2.94862,27
2.9784,29
3.00818,25
3.03796,15
3.06774,15
3.09752,15
3.1273,9
3.15708,10
3.18686,10
3.21664,11
3.24642,9
3.2762,11
3.30598,8
3.33576,6
3.36554,6
3.39532,3
3.4251,7
3.45488,9
3.48466,5
3.51444,6
3.54422,6
3.574,9
3.60378,7
3.63356,9
3.66334,7
3.69312,10
3.7229,9
3.75268,6
3.78246,9
3.81224,8
3.84202,7
3.8718,7
3.90158,8
3.93136,9
3.96114,2
3.99092,7
4.0207,4
4.05048,4
4.08026,3
4.11004,6
4.13982,10
4.1696,6
4.19938,8
4.22916,3
4.25894,6
4.28872,6
4.3185,5
4.34828,8
4.37806,9
4.40784,1
4.43762,8
4.4674,7
4.49718,11
4.52696,4
4.55674,5
4.58652,10
4.6163,10
4.64608,4
4.67586,5
4.70564,6
4.73542,9
4.7652,6
4.79498,8
4.82476,9
4.85454,4
4.88432,7
4.9141,5
4.94388,6
4.97366,7
5.00344,10
5.03322,10
5.063,6
5.09278,11
5.12256,8
5.15234,14
5.18212,12
5.2119,23
5.24168,9
5.27146,15
5.30124,7
5.33102,17
5.3608,14
5.39058,8
5.42036,11
5.45014,8
5.47992,9
5.5097,6
5.53948,10
5.56926,11
5.59904,7
5.62882,12
5.6586,8
5.68838,9
5.71816,12
5.74794,6
5.77772,16
5.8075,9
5.83728,11
5.86706,4
5.89684,14
5.92662,9
5.9564,22
5.98618,23
6.01596,12
6.04574,17
6.07552,17
6.1053,13
6.13508,23
6.16486,25
6.19464,16
6.22442,25
6.2542,23
6.28398,23
6.31376,25
6.34354,31
6.37332,33
6.4031,39
6.43288,29
6.46266,19
6.49244,26
6.52222,25
6.552,19
6.58178,12
6.61156,18
6.64134,4
6.67112,9
6.7009,16
6.73068,16
6.76046,15
6.79024,11
6.82002,14
6.8498,20
6.87958,23
6.90936,17
6.93914,15
6.96892,17
6.9987,20
7.02848,20
7.05826,19
7.08804,12
7.11782,32
7.1476,22
7.17738,29
7.20716,18
7.23694,19
7.26672,19
7.2965,28
7.32628,41
7.35606,34
7.38584,45
7.41562,34
7.4454,52
7.47518,62
7.50496,49
7.53474,43
7.56452,40
7.5943,29
7.62408,29
7.65386,27
7.68364,46
7.71342,31
7.7432,44
7.77298,66
7.80276,134
7.83254,262
7.86232,498
7.8921,875
7.92188,1400
7.95166,2057
7.98144,2727
8.01122,3227
8.041,3443
8.07078,3302
8.10056,2797
8.13034,2059
8.16012,1411
8.1899,885
8.21968,498
8.24946,230
8.27924,116
8.30902,85
8.3388,60
8.36858,68
8.39836,107
8.42814,188
8.45792,369
8.4877,567
8.51748,955
8.54726,1427
8.57704,1765
8.60682,2039
8.6366,2166
8.66638,1994
8.69616,1728
8.72594,1381
8.75572,952
8.7855,745
8.81528,533
8.84506,557
8.87484,530
8.90462,536
8.9344,498
8.96418,433
8.99396,350
9.02374,233
9.05352,134
9.0833,77
9.11308,45
9.14286,21
9.17264,16
9.20242,14
9.2322,11
9.26198,13
9.29176,15
9.32154,23
9.35132,24
9.3811,23
9.41088,28
9.44066,40
9.47044,70
9.50022,81
9.53,105
9.55978,116
9.58956,116
9.61934,97
9.64912,89
9.6789,65
9.70868,54
9.73846,30
9.76824,24
9.79802,19
9.8278,12
9.85758,10
9.88736,10
9.91714,8
9.94692,9
9.9767,6
10.0065,9
10.0363,8
10.066,4
10.0958,7
10.1256,8
10.1554,8
10.1852,7
10.2149,6
10.2447,14
10.2745,7
10.3043,10
10.3341,7
10.3638,8
10.3936,11
10.4234,13
10.4532,10
10.483,9
10.5127,4
10.5425,7
10.5723,11
10.6021,12
10.6319,9
10.6616,10
10.6914,11
10.7212,3
10.751,9
10.7808,13
10.8105,7
10.8403,9
10.8701,13
10.8999,9
10.9297,13
10.9594,8
10.9892,10
11.019,17
11.0488,9
11.0786,8
11.1083,9
11.1381,6
11.1679,7
11.1977,8
11.2275,12
11.2572,4
11.287,2
11.3168,10
11.3466,8
11.3764,8
11.4061,9
11.4359,8
11.4657,8
11.4955,10
11.5253,11
11.555,12
11.5848,11
11.6146,11
11.6444,8
11.6742,10
11.7039,9
11.7337,7
11.7635,12
11.7933,11
11.8231,4
11.8528,7
11.8826,7
11.9124,6
11.9422,8
11.972,13
12.0017,8
12.0315,6
12.0613,13
12.0911,7
12.1209,7
12.1506,10
12.1804,9
12.2102,3
12.24,9
12.2698,8
12.2995,10
12.3293,10
12.3591,9
12.3889,13
12.4187,13
12.4484,14
12.4782,5
12.508,13
12.5378,11
12.5676,10
12.5973,8
12.6271,5
12.6569,10
12.6867,12
12.7165,9
12.7462,10
12.776,6
12.8058,8
12.8356,8
12.8654,7
12.8951,8
12.9249,10
12.9547,10
12.9845,9
13.0143,6
13.044,7
13.0738,12
13.1036,6
13.1334,16
13.1632,9
13.1929,5
13.2227,12
13.2525,11
13.2823,8
13.3121,6
13.3418,17
13.3716,15
13.4014,13
13.4312,11
13.461,6
13.4907,12
13.5205,8
13.5503,13
13.5801,12
13.6099,12
13.6396,9
13.6694,12
13.6992,5
13.729,8
13.7588,8
13.7885,13
13.8183,7
13.8481,7
13.8779,15
13.9077,15
13.9374,11
13.9672,10
13.997,15
14.0268,8
14.0566,15
14.0863,6
14.1161,9
14.1459,12
14.1757,7
14.2055,13
14.2352,11
14.265,9
14.2948,10
14.3246,8
14.3544,10
14.3841,9
14.4139,11
14.4437,4
14.4735,11
14.5033,11
14.533,15
14.5628,13
14.5926,12
14.6224,16
14.6522,15
14.6819,11
14.7117,13
14.7415,14
14.7713,9
14.8011,10
14.8308,17
14.8606,8
14.8904,13
14.9202,13
14.95,9
14.9797,11
15.0095,4
15.0393,10
15.0691,11
15.0989,13
15.1286,12
15.1584,12
15.1882,10
15.218,13
15.2478,11
15.2775,12
15.3073,10
15.3371,6
15.3669,12
15.3967,12
15.4264,11
15.4562,13
15.486,15
15.5158,12
15.5456,16
15.5753,9
15.6051,15
15.6349,11
15.6647,22
15.6945,8
15.7242,12
15.754,12
15.7838,12
15.8136,10
15.8434,12
15.8731,8
15.9029,11
15.9327,10
15.9625,11
15.9923,21
16.022,14
16.0518,11
16.0816,11
16.1114,10
16.1412,10
16.1709,10
16.2007,16
16.2305,11
16.2603,12
16.2901,13
16.3198,10
16.3496,14
16.3794,16
16.4092,10
16.439,18
16.4687,12
16.4985,20
16.5283,9
16.5581,5
16.5879,11
16.6176,12
16.6474,12
16.6772,13
16.707,17
16.7368,23
16.7665,11
16.7963,13
16.8261,8
16.8559,16
16.8857,13
16.9154,23
16.9452,20
16.975,14
17.0048,11
17.0346,11
17.0643,10
17.0941,7
17.1239,14
17.1537,11
17.1835,13
17.2132,14
17.243,17
17.2728,10
17.3026,10
17.3324,9
17.3621,17
17.3919,15
17.4217,14
17.4515,12
17.4813,7
17.511,14
17.5408,9
17.5706,18
17.6004,13
17.6302,9
17.6599,7
17.6897,10
17.7195,9
17.7493,11
17.7791,11
17.8088,16
17.8386,18
17.8684,13
17.8982,11
17.928,18
17.9577,18
17.9875,11
18.0173,9
18.0471,15
18.0769,19
18.1066,14
18.1364,17
18.1662,16
18.196,21
18.2258,23
18.2555,26
18.2853,10
18.3151,20
18.3449,26
18.3747,24
18.4044,22
18.4342,20
18.464,19
18.4938,14
18.5236,28
18.5533,28
18.5831,22
18.6129,32
18.6427,31
18.6725,26
18.7022,32
18.732,24
18.7618,32
18.7916,38
18.8214,24
18.8511,34
18.8809,44
18.9107,36
18.9405,37
18.9703,34
19,42
19.0298,30
19.0596,23
19.0894,27
19.1192,30
19.1489,28
19.1787,29
19.2085,22
19.2383,32
19.2681,22
19.2978,30
19.3276,21
19.3574,20
19.3872,25
19.417,13
19.4467,17
19.4765,24
19.5063,23
19.5361,21
19.5659,27
19.5956,21
19.6254,16
19.6552,24
19.685,18
19.7148,19
19.7445,16
19.7743,20
19.8041,16
19.8339,20
19.8637,20
19.8934,16
19.9232,14
19.953,16
19.9828,32
20.0126,15
20.0423,24
20.0721,26
20.1019,27
20.1317,33
20.1615,43
20.1912,32
20.221,29
20.2508,31
20.2806,34
20.3104,25
20.3401,24
20.3699,21
20.3997,17
20.4295,23
20.4593,15
20.489,14
20.5188,27
20.5486,18
20.5784,14
20.6082,16
20.6379,11
20.6677,15
20.6975,12
20.7273,14
20.7571,25
20.7868,12
20.8166,13
20.8464,14
20.8762,16
20.906,7
20.9357,23
20.9655,11
20.9953,20
21.0251,14
21.0549,23
21.0846,25
21.1144,27
21.1442,15
21.174,15
21.2038,16
21.2335,14
21.2633,12
21.2931,21
21.3229,19
21.3527,16
21.3824,13
21.4122,11
21.442,16
21.4718,16
21.5016,6
21.5313,11
21.5611,9
21.5909,11
21.6207,19
21.6505,16
21.6802,8
21.71,14
21.7398,15
21.7696,18
21.7994,18
21.8291,10
21.8589,13
21.8887,16
21.9185,9
21.9483,13
21.978,9
22.0078,13
22.0376,9
22.0674,14
22.0972,8
22.1269,9
22.1567,12
22.1865,13
22.2163,14
22.2461,9
22.2758,13
22.3056,10
22.3354,11
22.3652,9
22.395,15
22.4247,7
22.4545,9
22.4843,14
22.5141,11
22.5439,13
22.5736,15
22.6034,16
22.6332,17
22.663,17
22.6928,19
22.7225,10
22.7523,22
22.7821,16
22.8119,14
22.8417,18
22.8714,18
22.9012,15
22.931,23
22.9608,26
22.9906,20
23.0203,14
23.0501,13
23.0799,11
23.1097,17
23.1395,20
23.1692,17
23.199,9
23.2288,15
23.2586,12
23.2884,13
23.3181,11
23.3479,7
23.3777,16
23.4075,7
23.4373,5
23.467,15
23.4968,8
23.5266,14
23.5564,6
23.5862,10
23.6159,10
23.6457,8
23.6755,7
23.7053,8
23.7351,11
23.7648,9
23.7946,11
23.8244,9
23.8542,6
23.884,12
23.9137,8
23.9435,5
23.9733,4
24.0031,10
24.0329,10
24.0626,13
24.0924,8
24.1222,12
24.152,9
24.1818,9
24.2115,10
24.2413,9
24.2711,10
24.3009,7
24.3307,9
24.3604,7
24.3902,4
24.42,7
24.4498,18
24.4796,5
24.5093,13
24.5391,7
24.5689,7
24.5987,10
24.6285,15
24.6582,6
24.688,14
24.7178,6
24.7476,8
24.7774,5
24.8071,11
24.8369,11
24.8667,11
24.8965,9
24.9263,10
24.956,13
24.9858,8
25.0156,4
25.0454,15
25.0752,15
25.1049,9
25.1347,10
25.1645,8
25.1943,17
25.2241,5
25.2538,7
25.2836,8
25.3134,8
25.3432,17
25.373,7
25.4027,9
25.4325,6
25.4623,3
25.4921,10
25.5219,4
25.5516,4
25.5814,11
25.6112,11
25.641,7
25.6708,6
25.7005,10
25.7303,6
25.7601,8
25.7899,6
25.8197,6
25.8494,8
25.8792,9
25.909,9
25.9388,4
25.9686,13
25.9983,8
26.0281,10
26.0579,7
26.0877,10
26.1175,7
26.1472,12
26.177,6
26.2068,6
26.2366,9
26.2664,4
26.2961,6
26.3259,10
26.3557,5
26.3855,12
26.4153,7
26.445,5
26.4748,9
26.5046,7
26.5344,6
26.5642,7
26.5939,5
26.6237,8
26.6535,15
26.6833,7
26.7131,6
26.7428,10
26.7726,5
26.8024,3
26.8322,7
26.862,7
26.8917,4
26.9215,9
26.9513,5
26.9811,10
27.0109,6
27.0406,7
27.0704,2
27.1002,9
27.13,3
27.1598,11
27.1895,2
27.2193,7
27.2491,2
27.2789,8
27.3087,9
27.3384,9
27.3682,4
27.398,4
27.4278,5
27.4576,5
27.4873,6
27.5171,8
27.5469,8
27.5767,7
27.6065,3
27.6362,5
27.666,5
27.6958,5
27.7256,3
27.7554,2
27.7851,5
27.8149,2
27.8447,2
27.8745,6
27.9043,7
27.934,2
27.9638,9
27.9936,5
28.0234,5
28.0532,3
28.0829,5
28.1127,7
28.1425,7
28.1723,2
28.2021,2
28.2318,6
28.2616,6
28.2914,5
28.3212,7
28.351,2
28.3807,3
28.4105,8
28.4403,4
28.4701,4
28.4999,2
28.5296,5
28.5594,6
28.5892,4
28.619,8
28.6488,7
28.6785,3
28.7083,7
28.7381,2
28.7679,5
28.7977,4
28.8274,2
28.8572,2
28.887,1
28.9168,4
28.9466,4
28.9763,5
29.0061,3
29.0359,4
29.0657,5
29.0955,1
29.1252,3
29.155,2
29.1848,2
29.2146,4
29.2444,5
29.2741,2
29.3039,2
29.3337,2
29.3635,6
29.3933,1
29.423,2
29.4528,2
29.4826,2
29.5124,3
29.5422,2
29.5719,0
29.6017,1
29.6315,2
29.6613,2
29.6911,0
29.7208,4
29.7506,2
29.7804,1
29.8102,0
29.84,0
29.8697,1
29.8995,0
29.9293,1
29.9591,1
29.9889,5
30.0186,0
30.0484,1
30.0782,0
30.108,2
30.1378,0
30.1675,1
30.1973,1
30.2271,2
30.2569,2
30.2867,0
30.3164,1
30.3462,1
30.376,2
30.4058,1
30.4356,1
30.4653,0
30.4951,0
30.5249,2
30.5547,0
30.5845,0
30.6142,0
30.644,0
30.6738,0
30.7036,2
30.7334,0
30.7631,0
30.7929,1
30.8227,1
30.8525,0
30.8823,0
30.912,2
30.9418,1
30.9716,0
31.0014,0
31.0312,0
31.0609,1
31.0907,0
31.1205,0
31.1503,1
31.1801,1
31.2098,1
31.2396,0
31.2694,0
31.2992,0
31.329,0
31.3587,0
31.3885,0
31.4183,0
31.4481,0
31.4779,1
31.5076,0
31.5374,1
31.5672,0
31.597,1
31.6268,1
31.6565,2
31.6863,0
31.7161,1
31.7459,1
31.7757,1
31.8054,0
31.8352,0
31.865,0
31.8948,1
31.9246,0
31.9543,0
31.9841,0
32.0139,0
32.0437,0
32.0735,0
32.1032,0
32.133,0
32.1628,0
32.1926,0
32.2224,1
32.2521,0
32.2819,0
32.3117,0
32.3415,0
32.3713,0
32.401,0
32.4308,0
32.4606,0
32.4904,0
32.5202,0
32.5499,0
32.5797,0
32.6095,0
32.6393,0
32.6691,0
32.6988,0
32.7286,0
32.7584,1
32.7882,0
32.818,1
32.8477,0
32.8775,0
32.9073,0
32.9371,0
32.9669,0
32.9966,1
33.0264,0
33.0562,0
33.086,1
33.1158,0
33.1455,0
33.1753,0
33.2051,1
33.2349,0
33.2647,0
33.2944,0
33.3242,1
33.354,1
33.3838,0
33.4136,0
33.4433,0
33.4731,0
33.5029,0
33.5327,0
33.5625,0
33.5922,0
33.622,0
33.6518,0
33.6816,0
33.7114,0
33.7411,0
33.7709,0
33.8007,0
33.8305,0
33.8603,0
33.89,0
33.9198,0
33.9496,0
33.9794,0
34.0092,0
34.0389,0
34.0687,0
34.0985,0
34.1283,0
34.1581,0
34.1878,0
34.2176,0
34.2474,0
34.2772,0
34.307,0
34.3367,0
34.3665,0
34.3963,0
34.4261,0
34.4559,0
34.4856,0
34.5154,0
34.5452,0
34.575,0
34.6048,0
34.6345,0
34.6643,0
34.6941,0
34.7239,0
34.7537,0
34.7834,0
34.8132,0
34.843,0
34.8728,0
34.9026,0
34.9323,0
34.9621,0
34.9919,0
35.0217,0
35.0515,0
35.0812,0
35.111,0
35.1408,0
35.1706,0
35.2004,0
35.2301,0
35.2599,0
35.2897,0
35.3195,0
35.3493,0
35.379,0
35.4088,0
35.4386,0
35.4684,0
35.4982,0
35.5279,0
35.5577,0
35.5875,1
35.6173,0
35.6471,0
35.6768,0
35.7066,0
35.7364,0
35.7662,0
35.796,0
35.8257,0
35.8555,0
35.8853,0
35.9151,1
35.9449,0
35.9746,0
36.0044,0
36.0342,0
36.064,0
36.0938,0
36.1235,0
36.1533,0
36.1831,0
36.2129,0
36.2427,0
36.2724,0
36.3022,0
36.332,0
36.3618,0
36.3916,0
36.4213,0
36.4511,0
36.4809,0
36.5107,0
36.5405,0
36.5702,0
36.6,0
36.6298,0
36.6596,0
36.6894,0
36.7191,0
36.7489,0
36.7787,0
36.8085,0
36.8383,0
36.868,0
36.8978,0
36.9276,0
36.9574,0
36.9872,0
37.0169,0
37.0467,0
37.0765,0
37.1063,0
37.1361,0
37.1658,0
37.1956,0
37.2254,0
37.2552,0
37.285,0
37.3147,0
37.3445,0
37.3743,0
37.4041,0
37.4339,0
37.4636,0
37.4934,0
37.5232,0
37.553,0
37.5828,0
37.6125,0
37.6423,0
37.6721,0
37.7019,0
37.7317,0
37.7614,0
37.7912,0
37.821,0
37.8508,0
37.8806,0
37.9103,0
37.9401,0
37.9699,0
37.9997,0
38.0295,0
38.0592,0
38.089,0
38.1188,0
38.1486,0
38.1784,0
38.2081,0
38.2379,0
38.2677,0
38.2975,0
38.3273,0
38.357,0
38.3868,0
38.4166,0
38.4464,0
38.4762,0
38.5059,0
38.5357,0
38.5655,0
38.5953,0
38.6251,0
38.6548,0
38.6846,0
38.7144,0
38.7442,0
38.774,0
38.8037,0
38.8335,0
38.8633,0
38.8931,0
38.9229,0
38.9526,0
38.9824,0
39.0122,0
39.042,0
39.0718,0
39.1015,0
39.1313,0
39.1611,0
39.1909,0
39.2207,0
39.2504,0
39.2802,0
39.31,0
39.3398,0
39.3696,0
39.3993,0
39.4291,0
39.4589,0
39.4887,0
39.5185,0
39.5482,0
39.578,0
39.6078,0
39.6376,0
39.6674,0
39.6971,0
39.7269,0
39.7567,0
39.7865,0
39.8163,0
39.846,0
39.8758,0
39.9056,0
39.9354,0
39.9652,0
39.9949,0
40.0247,0
40.0545,0
40.0843,0
40.1141,0
40.1438,0
40.1736,0
40.2034,0
40.2332,0
40.263,0
40.2927,0
40.3225,0
40.3523,0
40.3821,0
40.4119,0
40.4416,0
40.4714,0
40.5012,0
40.531,0
40.5608,0
40.5905,0
40.6203,0
40.6501,0
40.6799,0
40.7097,0
40.7394,0
40.7692,0
40.799,0
40.8288,0
40.8586,0
40.8883,0
40.9181,0
40.9479,0
40.9777,0
41.0075,0
41.0372,0
41.067,0
41.0968,0
41.1266,0
41.1564,0
41.1861,0
41.2159,1
41.2457,0
41.2755,0
41.3053,0
41.335,0
41.3648,0
41.3946,0
41.4244,0
41.4542,0
41.4839,0
41.5137,0
41.5435,1
41.5733,0
41.6031,0
41.6328,0
41.6626,0
41.6924,0
41.7222,0
41.752,0
41.7817,0
41.8115,0
41.8413,0
41.8711,0
41.9009,0
41.9306,0
41.9604,0
41.9902,0
42.02,0
42.0498,0
42.0795,0
42.1093,0
42.1391,0
42.1689,0
42.1987,0
42.2284,0
42.2582,0
42.288,0
42.3178,0
42.3476,0
42.3773,0
42.4071,0
42.4369,0
42.4667,0
42.4965,0
42.5262,0
42.556,0
42.5858,0
42.6156,0
42.6454,0
42.6751,0
42.7049,0
42.7347,0
42.7645,0
42.7943,0
42.824,0
42.8538,0
42.8836,0
42.9134,0
42.9432,0
42.9729,0
43.0027,0
43.0325,0
43.0623,1
43.0921,0
43.1218,0
43.1516,0
43.1814,1
43.2112,0
43.241,0
43.2707,0
43.3005,0
43.3303,0
43.3601,0
43.3899,0
43.4196,1
43.4494,0
43.4792,0
43.509,0
43.5388,0
43.5685,0
43.5983,0
43.6281,0
43.6579,0
43.6877,0
43.7174,0
43.7472,0
43.777,0
43.8068,0
43.8366,0
43.8663,0
43.8961,0
43.9259,0
43.9557,0
43.9855,0
44.0152,0
44.045,0
44.0748,0
44.1046,0
44.1344,0
44.1641,0
44.1939,0
44.2237,0
44.2535,0
44.2833,0
44.313,0
44.3428,0
44.3726,0
44.4024,0
44.4322,0
44.4619,0
44.4917,0
44.5215,0
44.5513,0
44.5811,0
44.6108,0
44.6406,0
44.6704,0
44.7002,0
44.73,0
44.7597,0
44.7895,0
44.8193,0
44.8491,0
44.8789,0
44.9086,0
44.9384,0
44.9682,0
44.998,0
45.0278,0
45.0575,0
45.0873,0
45.1171,0
45.1469,0
45.1767,0
45.2064,0
45.2362,0
45.266,0
45.2958,0
45.3256,0
45.3553,0
45.3851,0
45.4149,0
45.4447,0
45.4745,0
45.5042,0
45.534,0
45.5638,0
45.5936,0
45.6234,1
45.6531,0
45.6829,0
45.7127,0
45.7425,0
45.7723,0
45.802,0
45.8318,0
45.8616,0
45.8914,0
45.9212,0
45.9509,0
45.9807,0
46.0105,0
46.0403,1
46.0701,0
46.0998,0
46.1296,0
46.1594,0
46.1892,0
46.219,0
46.2487,0
46.2785,0
46.3083,0
46.3381,0
46.3679,0
46.3976,0
46.4274,0
46.4572,0
46.487,0
46.5168,0
46.5465,0
46.5763,0
46.6061,0
46.6359,0
46.6657,0
46.6954,0
46.7252,0
46.755,0
46.7848,0
46.8146,0
46.8443,0
46.8741,0
46.9039,0
46.9337,0
46.9635,0
46.9932,0
47.023,0
47.0528,0
47.0826,0
47.1124,0
47.1421,0
47.1719,0
47.2017,0
47.2315,0
47.2613,0
47.291,0
47.3208,0
47.3506,0
47.3804,0
47.4102,0
47.4399,0
47.4697,0
47.4995,0
47.5293,0
47.5591,0
47.5888,0
47.6186,0
47.6484,0
47.6782,0
47.708,1
47.7377,0
47.7675,0
47.7973,0
47.8271,0
47.8569,0
47.8866,0
47.9164,0
47.9462,0
47.976,0
48.0058,0
48.0355,0
48.0653,0
48.0951,0
48.1249,1
48.1547,0
48.1844,0
48.2142,0
48.244,0
48.2738,0
48.3036,0
48.3333,0
48.3631,0
48.3929,0
48.4227,0
48.4525,0
48.4822,0
48.512,0
48.5418,0
48.5716,0
48.6014,0
48.6311,0
48.6609,0
48.6907,0
48.7205,0
48.7503,0
48.78,0
48.8098,0
48.8396,0
48.8694,0
48.8992,0
48.9289,0
48.9587,0
48.9885,0
49.0183,0
49.0481,0
49.0778,0
49.1076,0
49.1374,0
49.1672,0
49.197,0
49.2267,0
49.2565,1
49.2863,0
49.3161,0
49.3459,0
49.3756,0
49.4054,0
49.4352,0
49.465,0
49.4948,0
49.5245,0
49.5543,0
49.5841,0
49.6139,0
49.6437,0
49.6734,0
49.7032,0
49.733,0
49.7628,0
49.7926,0
49.8223,0
49.8521,1
49.8819,0
49.9117,0
49.9415,0
49.9712,0
50.001,0
50.0308,0
50.0606,0
50.0904,0
50.1201,0
50.1499,0
50.1797,0
50.2095,0
50.2393,0
50.269,1
50.2988,0
50.3286,0
50.3584,0
50.3882,0
50.4179,0
50.4477,0
50.4775,0
50.5073,0
50.5371,0
50.5668,0
50.5966,0
50.6264,0
50.6562,0
50.686,0
50.7157,0
50.7455,0
50.7753,0
50.8051,0
50.8349,0
50.8646,0
50.8944,0
50.9242,1
50.954,0
50.9838,0
51.0135,0
51.0433,0
51.0731,0
51.1029,0
51.1327,0
51.1624,0
51.1922,0
51.222,0
51.2518,0
51.2816,0
51.3113,0
51.3411,0
51.3709,0
51.4007,0
51.4305,0
51.4602,0
51.49,0
51.5198,0
51.5496,0
51.5794,0
51.6091,0
51.6389,0
51.6687,0
51.6985,0
51.7283,0
51.758,0
51.7878,0
51.8176,0
51.8474,0
51.8772,0
51.9069,0
51.9367,0
51.9665,0
51.9963,0
52.0261,0
52.0558,0
52.0856,0
52.1154,0
52.1452,0
52.175,0
52.2047,0
52.2345,0
52.2643,0
52.2941,0
52.3239,0
52.3536,0
52.3834,0
52.4132,0
52.443,0
52.4728,0
52.5025,0
52.5323,0
52.5621,0
52.5919,0
52.6217,0
52.6514,0
52.6812,0
52.711,0
52.7408,0
52.7706,0
52.8003,0
52.8301,0
52.8599,0
52.8897,0
52.9195,0
52.9492,0
52.979,0
53.0088,0
53.0386,1
53.0684,0
53.0981,0
53.1279,0
53.1577,0
53.1875,0
53.2173,0
53.247,0
53.2768,0
53.3066,0
53.3364,0
53.3662,0
53.3959,0
53.4257,0
53.4555,0
53.4853,0
53.5151,0
53.5448,0
53.5746,0
53.6044,0
53.6342,0
53.664,0
53.6937,0
53.7235,0
53.7533,0
53.7831,0
53.8129,0
53.8426,0
53.8724,0
53.9022,0
53.932,0
53.9618,0
53.9915,0
54.0213,0
54.0511,0
54.0809,0
54.1107,0
54.1404,0
54.1702,0
54.2,0
54.2298,0
54.2596,0
54.2893,0
54.3191,0
54.3489,0
54.3787,0
54.4085,0
54.4382,0
54.468,0
54.4978,0
54.5276,0
54.5574,0
54.5871,0
54.6169,0
54.6467,0
54.6765,0
54.7063,0
54.736,0
54.7658,0
54.7956,0
54.8254,0
54.8552,0
54.8849,0
54.9147,0
54.9445,0
54.9743,0
55.0041,0
55.0338,0
55.0636,0
55.0934,0
55.1232,0
55.153,0
55.1827,0
55.2125,0
55.2423,0
55.2721,0
55.3019,0
55.3316,0
55.3614,0
55.3912,0
55.421,0
55.4508,0
55.4805,0
55.5103,0
55.5401,0
55.5699,0
55.5997,0
55.6294,0
55.6592,0
55.689,0
55.7188,0
55.7486,0
55.7783,0
55.8081,0
55.8379,0
55.8677,0
55.8975,0
55.9272,0
55.957,0
55.9868,0
56.0166,0
56.0464,1
56.0761,0
56.1059,0
56.1357,0
56.1655,0
56.1953,0
56.225,0
56.2548,0
56.2846,0
56.3144,0
56.3442,0
56.3739,0
56.4037,0
56.4335,0
56.4633,0
56.4931,0
56.5228,0
56.5526,0
56.5824,0
56.6122,0
56.642,0
56.6717,0
56.7015,0
56.7313,0
56.7611,0
56.7909,0
56.8206,0
56.8504,0
56.8802,0
56.91,0
56.9398,0
56.9695,0
56.9993,0
57.0291,0
57.0589,0
57.0887,0
57.1184,0
57.1482,0
57.178,0
57.2078,0
57.2376,0
57.2673,0
57.2971,0
57.3269,0
57.3567,0
57.3865,0
57.4162,0
57.446,0
57.4758,0
57.5056,0
57.5354,0
57.5651,0
57.5949,0
57.6247,0
57.6545,0
57.6843,0
57.714,0
57.7438,0
57.7736,0
57.8034,0
57.8332,0
57.8629,0
57.8927,0
57.9225,0
57.9523,0
57.9821,0
58.0118,0
58.0416,0
58.0714,0
58.1012,0
58.131,0
58.1607,0
58.1905,0
58.2203,0
58.2501,0
58.2799,0
58.3096,0
58.3394,0
58.3692,0
58.399,0
58.4288,0
58.4585,0
58.4883,1
58.5181,0
58.5479,0
58.5777,0
58.6074,0
58.6372,0
58.667,0
58.6968,0
58.7266,0
58.7563,0
58.7861,0
58.8159,0
58.8457,0
58.8755,0
58.9052,0
58.935,0
58.9648,0
58.9946,0
59.0244,0
59.0541,0
59.0839,0
59.1137,0
59.1435,0
59.1733,0
59.203,0
59.2328,0
59.2626,0
59.2924,0
59.3222,0
59.3519,0
59.3817,0
59.4115,0
59.4413,1
59.4711,1
59.5008,0
59.5306,0
59.5604,0
59.5902,0
59.62,0
59.6497,0
59.6795,0
59.7093,0
59.7391,1
59.7689,0
59.7986,1
59.8284,1
59.8582,0
59.888,0
59.9178,0
59.9475,0
59.9773,0
60.0071,0
60.0369,0
60.0667,0
60.0964,0
60.1262,0
60.156,0
60.1858,0
60.2156,0
60.2453,0
60.2751,0
60.3049,0
60.3347,0
60.3645,0
60.3942,0
60.424,0
60.4538,0
60.4836,0
60.5134,0
60.5431,0
60.5729,0
60.6027,0
60.6325,0
60.6623,0
60.692,0
60.7218,0
60.7516,0
60.7814,0
60.8112,0
60.8409,0
60.8707,0
60.9005,0
60.9303,0
60.9601,0
60.9898,0
61.0196,0
