Energy 	Counts
0.0004,0
0.03018,0
0.05996,0
0.08974,0
0.11952,0
0.1493,0
0.17908,0
0.20886,0
0.23864,0
0.26842,0
0.2982,0
0.32798,0
0.35776,6
0.38754,5
0.41732,17
0.4471,14
0.47688,16
0.50666,18
0.53644,19
0.56622,15
0.596,11
0.62578,16
0.65556,9
0.68534,15
0.71512,15
0.7449,13
0.77468,13
0.80446,17
0.83424,16
0.86402,12
0.8938,11
0.92358,11
0.95336,13
0.98314,8
1.01292,4
1.0427,12
1.07248,17
1.10226,10
1.13204,18
1.16182,9
1.1916,14
1.22138,10
1.25116,11
1.28094,10
1.31072,13
1.3405,9
1.37028,15
1.40006,11
1.42984,13
1.45962,15
1.4894,8
1.51918,14
1.54896,13
1.57874,16
1.60852,8
1.6383,6
1.66808,8
1.69786,8
1.72764,14
1.75742,11
1.7872,11
1.81698,5
1.84676,11
1.87654,9
1.90632,12
1.9361,7
1.96588,9
1.99566,9
2.02544,9
2.05522,7
2.085,7
2.11478,8
2.14456,10
2.17434,6
2.20412,4
2.2339,9
2.26368,6
2.29346,7
2.32324,7
2.35302,7
2.3828,4
2.41258,12
2.44236,2
2.47214,4
2.50192,8
2.5317,7
2.56148,11
2.59126,13
2.62104,11
2.65082,6
2.6806,17
2.71038,9
2.74016,5
2.76994,13
2.79972,14
2.8295,19
2.85928,15
2.88906,32
2.91884,38
2.94862,42
2.9784,27
3.00818,23
3.03796,16
3.06774,18
3.09752,7
3.1273,9
3.15708,5
3.18686,11
3.21664,13
3.24642,8
3.2762,8
3.30598,7
3.33576,6
3.36554,7
3.39532,11
3.4251,3
3.45488,7
3.48466,5
3.51444,4
3.54422,4
3.574,4
3.60378,7
3.63356,8
3.66334,1
3.69312,4
3.7229,5
3.75268,2
3.78246,5
3.81224,6
3.84202,6
3.8718,8
3.90158,6
3.93136,6
3.96114,2
3.99092,7
4.0207,6
4.05048,4
4.08026,5
4.11004,5
4.13982,6
4.1696,2
4.19938,2
4.22916,5
4.25894,5
4.28872,3
4.3185,5
4.34828,4
4.37806,8
4.40784,4
4.43762,5
4.4674,8
4.49718,6
4.52696,7
4.55674,5
4.58652,7
4.6163,8
4.64608,10
4.67586,9
4.70564,14
4.73542,5
4.7652,9
4.79498,4
4.82476,6
4.85454,8
4.88432,11
4.9141,8
4.94388,8
4.97366,5
5.00344,5
5.03322,5
5.063,6
5.09278,4
5.12256,14
5.15234,6
5.18212,10
5.2119,10
5.24168,3
5.27146,13
5.30124,10
5.33102,8
5.3608,10
5.39058,14
5.42036,12
5.45014,17
5.47992,11
5.5097,10
5.53948,7
5.56926,9
5.59904,5
5.62882,10
5.6586,11
5.68838,11
5.71816,6
5.74794,4
5.77772,7
5.8075,6
5.83728,6
5.86706,9
5.89684,8
5.92662,8
5.9564,9
5.98618,14
6.01596,12
6.04574,10
6.07552,7
6.1053,9
6.13508,12
6.16486,15
6.19464,11
6.22442,10
6.2542,16
6.28398,25
6.31376,22
6.34354,28
6.37332,26
6.4031,42
6.43288,25
6.46266,41
6.49244,21
6.52222,15
6.552,14
6.58178,9
6.61156,13
6.64134,14
6.67112,5
6.7009,7
6.73068,10
6.76046,16
6.79024,12
6.82002,10
6.8498,11
6.87958,11
6.90936,9
6.93914,13
6.96892,28
6.9987,15
7.02848,23
7.05826,20
7.08804,18
7.11782,27
7.1476,16
7.17738,24
7.20716,13
7.23694,15
7.26672,27
7.2965,18
7.32628,34
7.35606,40
7.38584,56
7.41562,65
7.4454,72
7.47518,79
7.50496,66
7.53474,54
7.56452,54
7.5943,41
7.62408,19
7.65386,27
7.68364,22
7.71342,20
7.7432,18
7.77298,26
7.80276,34
7.83254,64
7.86232,156
7.8921,252
7.92188,402
7.95166,608
7.98144,778
8.01122,967
8.041,1053
8.07078,991
8.10056,868
8.13034,650
8.16012,389
8.1899,293
8.21968,141
8.24946,89
8.27924,59
8.30902,49
8.3388,25
8.36858,24
8.39836,21
8.42814,12
8.45792,19
8.4877,19
8.51748,27
8.54726,30
8.57704,27
8.60682,34
8.6366,36
8.66638,43
8.69616,40
8.72594,42
8.75572,53
8.7855,82
8.81528,104
8.84506,141
8.87484,163
8.90462,147
8.9344,134
8.96418,130
8.99396,105
9.02374,68
9.05352,56
9.0833,34
9.11308,24
9.14286,10
9.17264,11
9.20242,18
9.2322,12
9.26198,5
9.29176,12
9.32154,12
9.35132,12
9.3811,16
9.41088,13
9.44066,12
9.47044,10
9.50022,15
9.53,16
9.55978,14
9.58956,16
9.61934,12
9.64912,14
9.6789,17
9.70868,19
9.73846,15
9.76824,7
9.79802,7
9.8278,10
9.85758,12
9.88736,14
9.91714,17
9.94692,18
9.9767,8
10.0065,12
10.0363,13
10.066,14
10.0958,10
10.1256,12
10.1554,11
10.1852,15
10.2149,9
10.2447,15
10.2745,10
10.3043,8
10.3341,9
10.3638,5
10.3936,10
10.4234,10
10.4532,15
10.483,11
10.5127,16
10.5425,15
10.5723,18
10.6021,17
10.6319,21
10.6616,12
10.6914,16
10.7212,16
10.751,18
10.7808,11
10.8105,5
10.8403,14
10.8701,7
10.8999,9
10.9297,19
10.9594,13
10.9892,14
11.019,16
11.0488,9
11.0786,6
11.1083,14
11.1381,11
11.1679,10
11.1977,15
11.2275,15
11.2572,11
11.287,13
11.3168,13
11.3466,8
11.3764,7
11.4061,11
11.4359,8
11.4657,19
11.4955,8
11.5253,7
11.555,12
11.5848,12
11.6146,22
11.6444,17
11.6742,10
11.7039,9
11.7337,16
11.7635,15
11.7933,15
11.8231,11
11.8528,13
11.8826,13
11.9124,12
11.9422,13
11.972,8
12.0017,10
12.0315,7
12.0613,15
12.0911,13
12.1209,9
12.1506,6
12.1804,16
12.2102,16
12.24,14
12.2698,9
12.2995,17
12.3293,12
12.3591,16
12.3889,14
12.4187,16
12.4484,16
12.4782,10
12.508,20
12.5378,10
12.5676,23
12.5973,21
12.6271,10
12.6569,12
12.6867,12
12.7165,13
12.7462,16
12.776,11
12.8058,14
12.8356,16
12.8654,11
12.8951,17
12.9249,10
12.9547,10
12.9845,14
13.0143,11
13.044,16
13.0738,10
13.1036,10
13.1334,17
13.1632,19
13.1929,17
13.2227,16
13.2525,23
13.2823,9
13.3121,9
13.3418,24
13.3716,10
13.4014,16
13.4312,17
13.461,14
13.4907,25
13.5205,16
13.5503,14
13.5801,17
13.6099,11
13.6396,11
13.6694,10
13.6992,16
13.729,9
13.7588,17
13.7885,18
13.8183,15
13.8481,10
13.8779,22
13.9077,18
13.9374,13
13.9672,12
13.997,12
14.0268,11
14.0566,11
14.0863,19
14.1161,11
14.1459,14
14.1757,17
14.2055,17
14.2352,13
14.265,15
14.2948,13
14.3246,16
14.3544,23
14.3841,22
14.4139,18
14.4437,15
14.4735,17
14.5033,14
14.533,21
14.5628,18
14.5926,14
14.6224,18
14.6522,18
14.6819,12
14.7117,18
14.7415,19
14.7713,21
14.8011,17
14.8308,21
14.8606,17
14.8904,18
14.9202,19
14.95,17
14.9797,22
15.0095,14
15.0393,11
15.0691,8
15.0989,13
15.1286,16
15.1584,13
15.1882,22
15.218,17
15.2478,20
15.2775,13
15.3073,16
15.3371,23
15.3669,20
15.3967,17
15.4264,22
15.4562,27
15.486,12
15.5158,12
15.5456,19
15.5753,16
15.6051,21
15.6349,17
15.6647,19
15.6945,16
15.7242,20
15.754,12
15.7838,8
15.8136,21
15.8434,20
15.8731,22
15.9029,16
15.9327,23
15.9625,21
15.9923,26
16.022,18
16.0518,21
16.0816,21
16.1114,18
16.1412,17
16.1709,21
16.2007,11
16.2305,24
16.2603,12
16.2901,18
16.3198,21
16.3496,19
16.3794,23
16.4092,20
16.439,17
16.4687,22
16.4985,18
16.5283,17
16.5581,20
16.5879,26
16.6176,12
16.6474,14
16.6772,14
16.707,12
16.7368,9
16.7665,13
16.7963,14
16.8261,20
16.8559,13
16.8857,16
16.9154,13
16.9452,14
16.975,21
17.0048,10
17.0346,21
17.0643,14
17.0941,19
17.1239,16
17.1537,13
17.1835,19
17.2132,13
17.243,23
17.2728,21
17.3026,21
17.3324,19
17.3621,29
17.3919,18
17.4217,18
17.4515,19
17.4813,27
17.511,16
17.5408,25
17.5706,23
17.6004,18
17.6302,21
17.6599,25
17.6897,21
17.7195,27
17.7493,28
17.7791,22
17.8088,14
17.8386,17
17.8684,14
17.8982,20
17.928,30
17.9577,16
17.9875,31
18.0173,20
18.0471,16
18.0769,22
18.1066,22
18.1364,28
18.1662,28
18.196,25
18.2258,23
18.2555,22
18.2853,29
18.3151,21
18.3449,27
18.3747,30
18.4044,33
18.4342,30
18.464,37
18.4938,40
18.5236,34
18.5533,37
18.5831,39
18.6129,46
18.6427,55
18.6725,48
18.7022,46
18.732,47
18.7618,50
18.7916,59
18.8214,68
18.8511,55
18.8809,63
18.9107,60
18.9405,58
18.9703,62
19,60
19.0298,60
19.0596,54
19.0894,43
19.1192,46
19.1489,44
19.1787,29
19.2085,37
19.2383,32
19.2681,32
19.2978,35
19.3276,25
19.3574,32
19.3872,31
19.417,31
19.4467,30
19.4765,31
19.5063,34
19.5361,28
19.5659,32
19.5956,31
19.6254,26
19.6552,20
19.685,22
19.7148,37
19.7445,33
19.7743,24
19.8041,26
19.8339,20
19.8637,37
19.8934,29
19.9232,17
19.953,33
19.9828,26
20.0126,30
20.0423,49
20.0721,53
20.1019,48
20.1317,52
20.1615,42
20.1912,53
20.221,42
20.2508,39
20.2806,40
20.3104,34
20.3401,31
20.3699,18
20.3997,32
20.4295,26
20.4593,25
20.489,22
20.5188,24
20.5486,28
20.5784,14
20.6082,10
20.6379,19
20.6677,22
20.6975,26
20.7273,24
20.7571,27
20.7868,21
20.8166,27
20.8464,27
20.8762,33
20.906,25
20.9357,30
20.9655,27
20.9953,23
21.0251,34
21.0549,20
21.0846,33
21.1144,32
21.1442,26
21.174,30
21.2038,24
21.2335,23
21.2633,25
21.2931,28
21.3229,26
21.3527,24
21.3824,21
21.4122,23
21.442,18
21.4718,18
21.5016,28
21.5313,20
21.5611,20
21.5909,21
21.6207,18
21.6505,16
21.6802,20
21.71,14
21.7398,22
21.7696,23
21.7994,26
21.8291,26
21.8589,18
21.8887,31
21.9185,18
21.9483,22
21.978,18
22.0078,15
22.0376,26
22.0674,16
22.0972,21
22.1269,17
22.1567,16
22.1865,21
22.2163,20
22.2461,17
22.2758,26
22.3056,20
22.3354,15
22.3652,15
22.395,13
22.4247,18
22.4545,18
22.4843,12
22.5141,17
22.5439,19
22.5736,17
22.6034,20
22.6332,18
22.663,28
22.6928,22
22.7225,24
22.7523,15
22.7821,15
22.8119,24
22.8417,28
22.8714,13
22.9012,25
22.931,21
22.9608,19
22.9906,26
23.0203,30
23.0501,18
23.0799,16
23.1097,18
23.1395,20
23.1692,17
23.199,13
23.2288,19
23.2586,18
23.2884,15
23.3181,18
23.3479,9
23.3777,22
23.4075,21
23.4373,14
23.467,21
23.4968,13
23.5266,18
23.5564,23
23.5862,22
23.6159,18
23.6457,15
23.6755,13
23.7053,17
23.7351,17
23.7648,16
23.7946,8
23.8244,15
23.8542,20
23.884,11
23.9137,13
23.9435,18
23.9733,16
24.0031,13
24.0329,26
24.0626,13
24.0924,10
24.1222,10
24.152,22
24.1818,10
24.2115,15
24.2413,25
24.2711,13
24.3009,20
24.3307,17
24.3604,16
24.3902,23
24.42,15
24.4498,17
24.4796,21
24.5093,21
24.5391,13
24.5689,13
24.5987,11
24.6285,11
24.6582,12
24.688,10
24.7178,16
24.7476,16
24.7774,12
24.8071,11
24.8369,16
24.8667,10
24.8965,15
24.9263,15
24.956,17
24.9858,17
25.0156,15
25.0454,13
25.0752,8
25.1049,15
25.1347,12
25.1645,19
25.1943,7
25.2241,16
25.2538,16
25.2836,5
25.3134,12
25.3432,12
25.373,15
25.4027,12
25.4325,9
25.4623,12
25.4921,19
25.5219,14
25.5516,10
25.5814,14
25.6112,20
25.641,17
25.6708,9
25.7005,9
25.7303,7
25.7601,15
25.7899,12
25.8197,10
25.8494,13
25.8792,9
25.909,8
25.9388,17
25.9686,13
25.9983,13
26.0281,9
26.0579,12
26.0877,13
26.1175,8
26.1472,7
26.177,4
26.2068,11
26.2366,13
26.2664,11
26.2961,10
26.3259,7
26.3557,6
26.3855,8
26.4153,12
26.445,12
26.4748,8
26.5046,16
26.5344,10
26.5642,13
26.5939,10
26.6237,14
26.6535,8
26.6833,8
26.7131,12
26.7428,5
26.7726,6
26.8024,9
26.8322,10
26.862,2
26.8917,8
26.9215,5
26.9513,7
26.9811,11
27.0109,17
27.0406,12
27.0704,7
27.1002,11
27.13,7
27.1598,7
27.1895,6
27.2193,8
27.2491,10
27.2789,13
27.3087,15
27.3384,10
27.3682,7
27.398,15
27.4278,13
27.4576,6
27.4873,12
27.5171,7
27.5469,5
27.5767,9
27.6065,5
27.6362,4
27.666,11
27.6958,8
27.7256,2
27.7554,7
27.7851,5
27.8149,11
27.8447,8
27.8745,7
27.9043,10
27.934,4
27.9638,7
27.9936,3
28.0234,6
28.0532,10
28.0829,8
28.1127,5
28.1425,8
28.1723,5
28.2021,9
28.2318,6
28.2616,9
28.2914,6
28.3212,7
28.351,1
28.3807,4
28.4105,7
28.4403,3
28.4701,4
28.4999,4
28.5296,3
28.5594,12
28.5892,5
28.619,2
28.6488,5
28.6785,6
28.7083,5
28.7381,14
28.7679,3
28.7977,5
28.8274,7
28.8572,4
28.887,3
28.9168,4
28.9466,7
28.9763,1
29.0061,6
29.0359,4
29.0657,2
29.0955,4
29.1252,3
29.155,2
29.1848,6
29.2146,4
29.2444,6
29.2741,6
29.3039,3
29.3337,1
29.3635,4
29.3933,2
29.423,1
29.4528,3
29.4826,3
29.5124,1
29.5422,2
29.5719,1
29.6017,2
29.6315,4
29.6613,5
29.6911,5
29.7208,8
29.7506,5
29.7804,2
29.8102,4
29.84,2
29.8697,1
29.8995,5
29.9293,2
29.9591,3
29.9889,3
30.0186,0
30.0484,2
30.0782,1
30.108,1
30.1378,4
30.1675,3
30.1973,1
30.2271,3
30.2569,1
30.2867,3
30.3164,2
30.3462,2
30.376,0
30.4058,1
30.4356,0
30.4653,1
30.4951,2
30.5249,1
30.5547,0
30.5845,4
30.6142,2
30.644,1
30.6738,0
30.7036,2
30.7334,0
30.7631,0
30.7929,0
30.8227,1
30.8525,2
30.8823,3
30.912,0
30.9418,1
30.9716,1
31.0014,1
31.0312,3
31.0609,1
31.0907,3
31.1205,1
31.1503,1
31.1801,1
31.2098,0
31.2396,1
31.2694,1
31.2992,1
31.329,1
31.3587,0
31.3885,0
31.4183,0
31.4481,1
31.4779,1
31.5076,0
31.5374,0
31.5672,0
31.597,0
31.6268,1
31.6565,0
31.6863,1
31.7161,0
31.7459,0
31.7757,0
31.8054,1
31.8352,0
31.865,2
31.8948,0
31.9246,2
31.9543,0
31.9841,0
32.0139,0
32.0437,0
32.0735,0
32.1032,0
32.133,0
32.1628,1
32.1926,0
32.2224,0
32.2521,1
32.2819,1
32.3117,0
32.3415,0
32.3713,1
32.401,1
32.4308,0
32.4606,0
32.4904,1
32.5202,2
32.5499,1
32.5797,1
32.6095,1
32.6393,0
32.6691,0
32.6988,0
32.7286,0
32.7584,0
32.7882,0
32.818,0
32.8477,2
32.8775,0
32.9073,0
32.9371,1
32.9669,0
32.9966,0
33.0264,0
33.0562,0
33.086,0
33.1158,0
33.1455,0
33.1753,1
33.2051,0
33.2349,0
33.2647,1
33.2944,1
33.3242,0
33.354,0
33.3838,0
33.4136,1
33.4433,0
33.4731,0
33.5029,0
33.5327,0
33.5625,0
33.5922,0
33.622,0
33.6518,0
33.6816,0
33.7114,0
33.7411,0
33.7709,0
33.8007,0
33.8305,0
33.8603,0
33.89,0
33.9198,0
33.9496,0
33.9794,0
34.0092,0
34.0389,0
34.0687,0
34.0985,0
34.1283,0
34.1581,0
34.1878,0
34.2176,0
34.2474,0
34.2772,0
34.307,0
34.3367,0
34.3665,0
34.3963,0
34.4261,0
34.4559,0
34.4856,0
34.5154,0
34.5452,0
34.575,0
34.6048,0
34.6345,0
34.6643,0
34.6941,0
34.7239,0
34.7537,0
34.7834,0
34.8132,0
34.843,0
34.8728,0
34.9026,0
34.9323,0
34.9621,0
34.9919,0
35.0217,0
35.0515,0
35.0812,0
35.111,0
35.1408,0
35.1706,0
35.2004,0
35.2301,0
35.2599,0
35.2897,0
35.3195,0
35.3493,0
35.379,0
35.4088,0
35.4386,0
35.4684,0
35.4982,0
35.5279,0
35.5577,0
35.5875,1
35.6173,0
35.6471,0
35.6768,0
35.7066,0
35.7364,0
35.7662,0
35.796,0
35.8257,0
35.8555,0
35.8853,0
35.9151,0
35.9449,0
35.9746,0
36.0044,0
36.0342,0
36.064,0
36.0938,0
36.1235,0
36.1533,0
36.1831,0
36.2129,0
36.2427,0
36.2724,0
36.3022,0
36.332,0
36.3618,0
36.3916,0
36.4213,0
36.4511,0
36.4809,0
36.5107,0
36.5405,0
36.5702,0
36.6,0
36.6298,0
36.6596,0
36.6894,0
36.7191,0
36.7489,0
36.7787,0
36.8085,0
36.8383,1
36.868,0
36.8978,0
36.9276,0
36.9574,1
36.9872,0
37.0169,0
37.0467,0
37.0765,0
37.1063,0
37.1361,0
37.1658,0
37.1956,0
37.2254,0
37.2552,0
37.285,0
37.3147,0
37.3445,0
37.3743,0
37.4041,0
37.4339,0
37.4636,0
37.4934,0
37.5232,0
37.553,0
37.5828,0
37.6125,0
37.6423,1
37.6721,0
37.7019,0
37.7317,0
37.7614,0
37.7912,0
37.821,0
37.8508,0
37.8806,0
37.9103,0
37.9401,0
37.9699,0
37.9997,0
38.0295,0
38.0592,0
38.089,0
38.1188,0
38.1486,0
38.1784,0
38.2081,0
38.2379,0
38.2677,0
38.2975,0
38.3273,0
38.357,0
38.3868,0
38.4166,0
38.4464,0
38.4762,0
38.5059,1
38.5357,0
38.5655,0
38.5953,0
38.6251,0
38.6548,0
38.6846,0
38.7144,0
38.7442,0
38.774,0
38.8037,0
38.8335,0
38.8633,0
38.8931,0
38.9229,0
38.9526,0
38.9824,0
39.0122,0
39.042,0
39.0718,0
39.1015,0
39.1313,0
39.1611,0
39.1909,0
39.2207,0
39.2504,0
39.2802,0
39.31,0
39.3398,0
39.3696,0
39.3993,0
39.4291,0
39.4589,0
39.4887,0
39.5185,0
39.5482,0
39.578,0
39.6078,0
39.6376,0
39.6674,0
39.6971,0
39.7269,0
39.7567,0
39.7865,0
39.8163,0
39.846,0
39.8758,0
39.9056,0
39.9354,0
39.9652,0
39.9949,0
40.0247,0
40.0545,0
40.0843,0
40.1141,0
40.1438,0
40.1736,0
40.2034,0
40.2332,0
40.263,0
40.2927,0
40.3225,0
40.3523,0
40.3821,0
40.4119,0
40.4416,0
40.4714,0
40.5012,0
40.531,0
40.5608,0
40.5905,0
40.6203,0
40.6501,0
40.6799,0
40.7097,0
40.7394,0
40.7692,0
40.799,0
40.8288,0
40.8586,0
40.8883,0
40.9181,0
40.9479,0
40.9777,0
41.0075,0
41.0372,0
41.067,0
41.0968,0
41.1266,0
41.1564,0
41.1861,0
41.2159,0
41.2457,0
41.2755,0
41.3053,0
41.335,1
41.3648,0
41.3946,0
41.4244,0
41.4542,0
41.4839,0
41.5137,0
41.5435,0
41.5733,0
41.6031,0
41.6328,0
41.6626,0
41.6924,0
41.7222,0
41.752,0
41.7817,0
41.8115,0
41.8413,0
41.8711,0
41.9009,0
41.9306,0
41.9604,0
41.9902,0
42.02,0
42.0498,0
42.0795,0
42.1093,0
42.1391,0
42.1689,0
42.1987,0
42.2284,0
42.2582,0
42.288,0
42.3178,0
42.3476,0
42.3773,0
42.4071,0
42.4369,0
42.4667,0
42.4965,0
42.5262,0
42.556,0
42.5858,0
42.6156,0
42.6454,0
42.6751,0
42.7049,0
42.7347,0
42.7645,0
42.7943,0
42.824,1
42.8538,0
42.8836,0
42.9134,0
42.9432,0
42.9729,0
43.0027,0
43.0325,0
43.0623,0
43.0921,0
43.1218,0
43.1516,0
43.1814,0
43.2112,0
43.241,0
43.2707,0
43.3005,0
43.3303,0
43.3601,0
43.3899,0
43.4196,0
43.4494,0
43.4792,0
43.509,0
43.5388,0
43.5685,0
43.5983,0
43.6281,0
43.6579,0
43.6877,0
43.7174,0
43.7472,0
43.777,0
43.8068,0
43.8366,0
43.8663,0
43.8961,0
43.9259,0
43.9557,0
43.9855,0
44.0152,0
44.045,0
44.0748,0
44.1046,0
44.1344,0
44.1641,0
44.1939,0
44.2237,0
44.2535,0
44.2833,0
44.313,0
44.3428,0
44.3726,0
44.4024,0
44.4322,0
44.4619,0
44.4917,0
44.5215,0
44.5513,0
44.5811,0
44.6108,0
44.6406,0
44.6704,0
44.7002,0
44.73,0
44.7597,0
44.7895,1
44.8193,0
44.8491,0
44.8789,0
44.9086,0
44.9384,0
44.9682,0
44.998,0
45.0278,1
45.0575,0
45.0873,0
45.1171,0
45.1469,0
45.1767,0
45.2064,0
45.2362,0
45.266,0
45.2958,0
45.3256,0
45.3553,0
45.3851,0
45.4149,1
45.4447,0
45.4745,0
45.5042,0
45.534,0
45.5638,0
45.5936,0
45.6234,0
45.6531,0
45.6829,0
45.7127,0
45.7425,0
45.7723,0
45.802,0
45.8318,0
45.8616,0
45.8914,0
45.9212,0
45.9509,0
45.9807,0
46.0105,0
46.0403,0
46.0701,0
46.0998,0
46.1296,0
46.1594,0
46.1892,0
46.219,0
46.2487,0
46.2785,0
46.3083,0
46.3381,0
46.3679,0
46.3976,0
46.4274,0
46.4572,0
46.487,0
46.5168,0
46.5465,0
46.5763,0
46.6061,0
46.6359,0
46.6657,0
46.6954,0
46.7252,0
46.755,0
46.7848,0
46.8146,0
46.8443,0
46.8741,0
46.9039,0
46.9337,0
46.9635,0
46.9932,0
47.023,0
47.0528,0
47.0826,0
47.1124,0
47.1421,0
47.1719,0
47.2017,0
47.2315,0
47.2613,0
47.291,0
47.3208,0
47.3506,0
47.3804,0
47.4102,0
47.4399,0
47.4697,0
47.4995,0
47.5293,0
47.5591,0
47.5888,0
47.6186,0
47.6484,0
47.6782,0
47.708,0
47.7377,0
47.7675,0
47.7973,1
47.8271,0
47.8569,0
47.8866,0
47.9164,0
47.9462,0
47.976,0
48.0058,0
48.0355,0
48.0653,0
48.0951,0
48.1249,0
48.1547,0
48.1844,0
48.2142,0
48.244,0
48.2738,0
48.3036,0
48.3333,0
48.3631,0
48.3929,0
48.4227,0
48.4525,0
48.4822,0
48.512,0
48.5418,0
48.5716,0
48.6014,0
48.6311,0
48.6609,0
48.6907,0
48.7205,0
48.7503,0
48.78,1
48.8098,0
48.8396,0
48.8694,0
48.8992,0
48.9289,0
48.9587,0
48.9885,0
49.0183,0
49.0481,0
49.0778,0
49.1076,0
49.1374,0
49.1672,0
49.197,0
49.2267,0
49.2565,0
49.2863,0
49.3161,0
49.3459,0
49.3756,0
49.4054,0
49.4352,0
49.465,0
49.4948,0
49.5245,0
49.5543,0
49.5841,0
49.6139,0
49.6437,0
49.6734,0
49.7032,0
49.733,0
49.7628,1
49.7926,0
49.8223,0
49.8521,0
49.8819,0
49.9117,0
49.9415,0
49.9712,0
50.001,0
50.0308,0
50.0606,0
50.0904,0
50.1201,0
50.1499,0
50.1797,0
50.2095,0
50.2393,1
50.269,0
50.2988,0
50.3286,0
50.3584,0
50.3882,0
50.4179,0
50.4477,0
50.4775,0
50.5073,0
50.5371,0
50.5668,0
50.5966,0
50.6264,0
50.6562,0
50.686,0
50.7157,0
50.7455,0
50.7753,0
50.8051,0
50.8349,0
50.8646,0
50.8944,0
50.9242,0
50.954,0
50.9838,0
51.0135,0
51.0433,0
51.0731,0
51.1029,0
51.1327,0
51.1624,0
51.1922,0
51.222,0
51.2518,0
51.2816,0
51.3113,0
51.3411,0
51.3709,0
51.4007,0
51.4305,0
51.4602,0
51.49,0
51.5198,0
51.5496,0
51.5794,0
51.6091,0
51.6389,0
51.6687,0
51.6985,0
51.7283,0
51.758,0
51.7878,0
51.8176,0
51.8474,0
51.8772,0
51.9069,0
51.9367,0
51.9665,0
51.9963,0
52.0261,0
52.0558,0
52.0856,0
52.1154,0
52.1452,0
52.175,0
52.2047,0
52.2345,0
52.2643,0
52.2941,0
52.3239,0
52.3536,0
52.3834,0
52.4132,0
52.443,0
52.4728,0
52.5025,0
52.5323,0
52.5621,0
52.5919,0
52.6217,0
52.6514,0
52.6812,0
52.711,0
52.7408,0
52.7706,0
52.8003,0
52.8301,1
52.8599,0
52.8897,0
52.9195,0
52.9492,0
52.979,0
53.0088,0
53.0386,0
53.0684,0
53.0981,0
53.1279,0
53.1577,0
53.1875,0
53.2173,0
53.247,0
53.2768,0
53.3066,0
53.3364,1
53.3662,0
53.3959,0
53.4257,0
53.4555,0
53.4853,0
53.5151,0
53.5448,0
53.5746,0
53.6044,0
53.6342,0
53.664,0
53.6937,0
53.7235,0
53.7533,0
53.7831,0
53.8129,0
53.8426,0
53.8724,0
53.9022,0
53.932,0
53.9618,0
53.9915,0
54.0213,0
54.0511,0
54.0809,0
54.1107,0
54.1404,0
54.1702,0
54.2,0
54.2298,0
54.2596,0
54.2893,0
54.3191,0
54.3489,0
54.3787,0
54.4085,0
54.4382,1
54.468,0
54.4978,0
54.5276,0
54.5574,0
54.5871,0
54.6169,0
54.6467,0
54.6765,0
54.7063,0
54.736,0
54.7658,0
54.7956,0
54.8254,0
54.8552,0
54.8849,0
54.9147,0
54.9445,0
54.9743,0
55.0041,0
55.0338,0
55.0636,0
55.0934,0
55.1232,0
55.153,0
55.1827,0
55.2125,0
55.2423,0
55.2721,0
55.3019,0
55.3316,1
55.3614,0
55.3912,0
55.421,0
55.4508,0
55.4805,0
55.5103,1
55.5401,0
55.5699,0
55.5997,0
55.6294,0
55.6592,0
55.689,0
55.7188,0
55.7486,0
55.7783,0
55.8081,0
55.8379,0
55.8677,0
55.8975,0
55.9272,0
55.957,0
55.9868,0
56.0166,0
56.0464,0
56.0761,0
56.1059,0
56.1357,0
56.1655,1
56.1953,0
56.225,0
56.2548,0
56.2846,0
56.3144,0
56.3442,0
56.3739,1
56.4037,0
56.4335,0
56.4633,0
56.4931,0
56.5228,0
56.5526,0
56.5824,0
56.6122,0
56.642,0
56.6717,0
56.7015,0
56.7313,0
56.7611,0
56.7909,0
56.8206,0
56.8504,0
56.8802,0
56.91,0
56.9398,0
56.9695,0
56.9993,0
57.0291,0
57.0589,0
57.0887,0
57.1184,0
57.1482,0
57.178,0
57.2078,0
57.2376,0
57.2673,0
57.2971,0
57.3269,0
57.3567,0
57.3865,0
57.4162,0
57.446,0
57.4758,0
57.5056,0
57.5354,0
57.5651,0
57.5949,0
57.6247,0
57.6545,0
57.6843,0
57.714,0
57.7438,0
57.7736,0
57.8034,0
57.8332,0
57.8629,0
57.8927,0
57.9225,0
57.9523,0
57.9821,0
58.0118,0
58.0416,0
58.0714,0
58.1012,0
58.131,0
58.1607,0
58.1905,0
58.2203,0
58.2501,0
58.2799,0
58.3096,0
58.3394,0
58.3692,0
58.399,0
58.4288,0
58.4585,0
58.4883,0
58.5181,0
58.5479,0
58.5777,0
58.6074,0
58.6372,0
58.667,0
58.6968,0
58.7266,0
58.7563,0
58.7861,0
58.8159,0
58.8457,0
58.8755,0
58.9052,0
58.935,0
58.9648,0
58.9946,0
59.0244,0
59.0541,0
59.0839,0
59.1137,0
59.1435,0
59.1733,0
59.203,0
59.2328,0
59.2626,0
59.2924,0
59.3222,1
59.3519,0
59.3817,0
59.4115,0
59.4413,1
59.4711,0
59.5008,0
59.5306,1
59.5604,0
59.5902,0
59.62,1
59.6497,1
59.6795,0
59.7093,0
59.7391,0
59.7689,1
59.7986,0
59.8284,0
59.8582,0
59.888,0
59.9178,0
59.9475,0
59.9773,0
60.0071,0
60.0369,0
60.0667,0
60.0964,0
60.1262,0
60.156,0
60.1858,0
60.2156,0
60.2453,0
60.2751,0
60.3049,0
60.3347,0
60.3645,0
60.3942,0
60.424,0
60.4538,0
60.4836,0
60.5134,0
60.5431,0
60.5729,0
60.6027,0
60.6325,0
60.6623,0
60.692,0
60.7218,0
60.7516,0
60.7814,0
60.8112,0
60.8409,0
60.8707,0
60.9005,0
60.9303,0
60.9601,0
60.9898,0
61.0196,0
