Energy 	Counts
0.0004,0
0.03018,0
0.05996,0
0.08974,0
0.11952,0
0.1493,0
0.17908,0
0.20886,0
0.23864,0
0.26842,0
0.2982,0
0.32798,1
0.35776,7
0.38754,11
0.41732,17
0.4471,12
0.47688,17
0.50666,22
0.53644,10
0.56622,12
0.596,13
0.62578,8
0.65556,28
0.68534,20
0.71512,15
0.7449,16
0.77468,19
0.80446,13
0.83424,16
0.86402,13
0.8938,8
0.92358,14
0.95336,11
0.98314,15
1.01292,11
1.0427,17
1.07248,10
1.10226,14
1.13204,15
1.16182,9
1.1916,14
1.22138,7
1.25116,4
1.28094,14
1.31072,10
1.3405,12
1.37028,8
1.40006,12
1.42984,8
1.45962,11
1.4894,9
1.51918,9
1.54896,9
1.57874,6
1.60852,6
1.6383,7
1.66808,5
1.69786,8
1.72764,8
1.75742,10
1.7872,9
1.81698,5
1.84676,6
1.87654,3
1.90632,6
1.9361,9
1.96588,7
1.99566,11
2.02544,6
2.05522,5
2.085,8
2.11478,7
2.14456,11
2.17434,14
2.20412,12
2.2339,15
2.26368,14
2.29346,7
2.32324,11
2.35302,14
2.3828,14
2.41258,17
2.44236,12
2.47214,15
2.50192,19
2.5317,7
2.56148,19
2.59126,7
2.62104,13
2.65082,6
2.6806,6
2.71038,5
2.74016,7
2.76994,10
2.79972,9
2.8295,13
2.85928,21
2.88906,20
2.91884,23
2.94862,31
2.9784,28
3.00818,23
3.03796,13
3.06774,6
3.09752,8
3.1273,10
3.15708,9
3.18686,11
3.21664,13
3.24642,5
3.2762,11
3.30598,7
3.33576,5
3.36554,7
3.39532,7
3.4251,5
3.45488,3
3.48466,8
3.51444,5
3.54422,4
3.574,3
3.60378,6
3.63356,7
3.66334,7
3.69312,3
3.7229,3
3.75268,3
3.78246,7
3.81224,7
3.84202,4
3.8718,4
3.90158,3
3.93136,2
3.96114,4
3.99092,1
4.0207,5
4.05048,3
4.08026,6
4.11004,4
4.13982,2
4.1696,2
4.19938,3
4.22916,2
4.25894,5
4.28872,2
4.3185,7
4.34828,2
4.37806,5
4.40784,4
4.43762,5
4.4674,4
4.49718,8
4.52696,6
4.55674,5
4.58652,10
4.6163,5
4.64608,3
4.67586,4
4.70564,3
4.73542,6
4.7652,3
4.79498,10
4.82476,7
4.85454,8
4.88432,10
4.9141,3
4.94388,8
4.97366,8
5.00344,14
5.03322,6
5.063,6
5.09278,3
5.12256,6
5.15234,9
5.18212,7
5.2119,5
5.24168,8
5.27146,6
5.30124,5
5.33102,5
5.3608,5
5.39058,13
5.42036,4
5.45014,8
5.47992,14
5.5097,9
5.53948,6
5.56926,4
5.59904,6
5.62882,6
5.6586,8
5.68838,8
5.71816,5
5.74794,9
5.77772,6
5.8075,8
5.83728,5
5.86706,11
5.89684,10
5.92662,13
5.9564,9
5.98618,5
6.01596,4
6.04574,9
6.07552,10
6.1053,8
6.13508,10
6.16486,6
6.19464,9
6.22442,9
6.2542,15
6.28398,25
6.31376,25
6.34354,24
6.37332,33
6.4031,42
6.43288,48
6.46266,48
6.49244,53
6.52222,22
6.552,21
6.58178,28
6.61156,18
6.64134,11
6.67112,14
6.7009,7
6.73068,14
6.76046,7
6.79024,7
6.82002,8
6.8498,8
6.87958,9
6.90936,12
6.93914,8
6.96892,15
6.9987,17
7.02848,21
7.05826,21
7.08804,24
7.11782,22
7.1476,8
7.17738,17
7.20716,14
7.23694,17
7.26672,9
7.2965,20
7.32628,14
7.35606,28
7.38584,36
7.41562,51
7.4454,52
7.47518,62
7.50496,58
7.53474,55
7.56452,44
7.5943,21
7.62408,15
7.65386,16
7.68364,19
7.71342,11
7.7432,11
7.77298,15
7.80276,5
7.83254,9
7.86232,13
7.8921,16
7.92188,20
7.95166,25
7.98144,26
8.01122,25
8.041,28
8.07078,26
8.10056,21
8.13034,27
8.16012,27
8.1899,16
8.21968,17
8.24946,22
8.27924,22
8.30902,15
8.3388,11
8.36858,17
8.39836,19
8.42814,15
8.45792,12
8.4877,17
8.51748,7
8.54726,18
8.57704,17
8.60682,18
8.6366,15
8.66638,15
8.69616,15
8.72594,12
8.75572,8
8.7855,18
8.81528,14
8.84506,18
8.87484,11
8.90462,9
8.9344,9
8.96418,17
8.99396,12
9.02374,19
9.05352,21
9.0833,9
9.11308,12
9.14286,15
9.17264,14
9.20242,17
9.2322,21
9.26198,26
9.29176,23
9.32154,38
9.35132,29
9.3811,47
9.41088,39
9.44066,35
9.47044,45
9.50022,42
9.53,31
9.55978,25
9.58956,16
9.61934,19
9.64912,13
9.6789,17
9.70868,24
9.73846,20
9.76824,21
9.79802,13
9.8278,11
9.85758,11
9.88736,10
9.91714,14
9.94692,10
9.9767,17
10.0065,13
10.0363,13
10.066,12
10.0958,8
10.1256,17
10.1554,12
10.1852,10
10.2149,13
10.2447,13
10.2745,19
10.3043,19
10.3341,13
10.3638,14
10.3936,18
10.4234,19
10.4532,25
10.483,22
10.5127,30
10.5425,35
10.5723,40
10.6021,68
10.6319,97
10.6616,178
10.6914,239
10.7212,327
10.751,431
10.7808,525
10.8105,600
10.8403,630
10.8701,587
10.8999,492
10.9297,399
10.9594,282
10.9892,207
11.019,125
11.0488,80
11.0786,54
11.1083,34
11.1381,26
11.1679,21
11.1977,15
11.2275,17
11.2572,16
11.287,14
11.3168,12
11.3466,20
11.3764,11
11.4061,16
11.4359,14
11.4657,19
11.4955,13
11.5253,26
11.555,27
11.5848,22
11.6146,24
11.6444,23
11.6742,16
11.7039,31
11.7337,23
11.7635,22
11.7933,18
11.8231,19
11.8528,20
11.8826,18
11.9124,19
11.9422,12
11.972,16
12.0017,19
12.0315,14
12.0613,18
12.0911,17
12.1209,17
12.1506,22
12.1804,20
12.2102,18
12.24,12
12.2698,8
12.2995,15
12.3293,26
12.3591,17
12.3889,23
12.4187,24
12.4484,30
12.4782,28
12.508,39
12.5378,32
12.5676,34
12.5973,32
12.6271,42
12.6569,53
12.6867,38
12.7165,62
12.7462,48
12.776,82
12.8058,97
12.8356,123
12.8654,201
12.8951,241
12.9249,340
12.9547,416
12.9845,503
13.0143,536
13.044,469
13.0738,430
13.1036,409
13.1334,306
13.1632,228
13.1929,144
13.2227,132
13.2525,85
13.2823,74
13.3121,75
13.3418,50
13.3716,48
13.4014,44
13.4312,37
13.461,23
13.4907,26
13.5205,30
13.5503,27
13.5801,20
13.6099,16
13.6396,19
13.6694,19
13.6992,11
13.729,16
13.7588,11
13.7885,17
13.8183,12
13.8481,14
13.8779,12
13.9077,9
13.9374,13
13.9672,14
13.997,17
14.0268,16
14.0566,17
14.0863,15
14.1161,10
14.1459,9
14.1757,14
14.2055,19
14.2352,17
14.265,9
14.2948,16
14.3246,19
14.3544,14
14.3841,17
14.4139,13
14.4437,5
14.4735,11
14.5033,15
14.533,19
14.5628,10
14.5926,12
14.6224,14
14.6522,16
14.6819,15
14.7117,17
14.7415,14
14.7713,15
14.8011,26
14.8308,12
14.8606,18
14.8904,21
14.9202,16
14.95,12
14.9797,20
15.0095,26
15.0393,26
15.0691,34
15.0989,36
15.1286,56
15.1584,54
15.1882,53
15.218,67
15.2478,64
15.2775,83
15.3073,86
15.3371,65
15.3669,44
15.3967,32
15.4264,38
15.4562,40
15.486,20
15.5158,35
15.5456,32
15.5753,24
15.6051,34
15.6349,26
15.6647,49
15.6945,44
15.7242,57
15.754,25
15.7838,24
15.8136,19
15.8434,22
15.8731,18
15.9029,21
15.9327,15
15.9625,14
15.9923,15
16.022,13
16.0518,13
16.0816,13
16.1114,24
16.1412,16
16.1709,19
16.2007,10
16.2305,11
16.2603,11
16.2901,22
16.3198,21
16.3496,17
16.3794,15
16.4092,12
16.439,13
16.4687,12
16.4985,11
16.5283,11
16.5581,24
16.5879,24
16.6176,12
16.6474,22
16.6772,8
16.707,13
16.7368,19
16.7665,14
16.7963,11
16.8261,11
16.8559,9
16.8857,12
16.9154,23
16.9452,14
16.975,23
17.0048,13
17.0346,21
17.0643,15
17.0941,19
17.1239,25
17.1537,13
17.1835,10
17.2132,15
17.243,16
17.2728,13
17.3026,15
17.3324,14
17.3621,19
17.3919,8
17.4217,15
17.4515,9
17.4813,22
17.511,10
17.5408,14
17.5706,10
17.6004,22
17.6302,22
17.6599,26
17.6897,13
17.7195,18
17.7493,20
17.7791,16
17.8088,14
17.8386,20
17.8684,21
17.8982,14
17.928,16
17.9577,20
17.9875,23
18.0173,27
18.0471,18
18.0769,17
18.1066,17
18.1364,14
18.1662,23
18.196,21
18.2258,18
18.2555,27
18.2853,16
18.3151,16
18.3449,28
18.3747,18
18.4044,20
18.4342,40
18.464,27
18.4938,32
18.5236,45
18.5533,32
18.5831,31
18.6129,27
18.6427,28
18.6725,47
18.7022,43
18.732,40
18.7618,47
18.7916,43
18.8214,46
18.8511,64
18.8809,33
18.9107,46
18.9405,33
18.9703,34
19,51
19.0298,30
19.0596,41
19.0894,39
19.1192,41
19.1489,25
19.1787,35
19.2085,34
19.2383,37
19.2681,37
19.2978,23
19.3276,24
19.3574,31
19.3872,13
19.417,33
19.4467,27
19.4765,19
19.5063,27
19.5361,16
19.5659,25
19.5956,23
19.6254,32
19.6552,25
19.685,21
19.7148,19
19.7445,23
19.7743,29
19.8041,20
19.8339,14
19.8637,20
19.8934,21
19.9232,19
19.953,20
19.9828,37
20.0126,29
20.0423,32
20.0721,43
20.1019,37
20.1317,49
20.1615,40
20.1912,58
20.221,37
20.2508,49
20.2806,35
20.3104,22
20.3401,27
20.3699,22
20.3997,26
20.4295,29
20.4593,21
20.489,9
20.5188,21
20.5486,22
20.5784,17
20.6082,26
20.6379,14
20.6677,22
20.6975,15
20.7273,21
20.7571,15
20.7868,17
20.8166,20
20.8464,22
20.8762,19
20.906,18
20.9357,22
20.9655,27
20.9953,22
21.0251,26
21.0549,29
21.0846,22
21.1144,26
21.1442,19
21.174,24
21.2038,23
21.2335,28
21.2633,31
21.2931,27
21.3229,23
21.3527,16
21.3824,20
21.4122,17
21.442,22
21.4718,17
21.5016,15
21.5313,20
21.5611,27
21.5909,20
21.6207,19
21.6505,17
21.6802,20
21.71,15
21.7398,16
21.7696,17
21.7994,24
21.8291,20
21.8589,18
21.8887,11
21.9185,17
21.9483,17
21.978,16
22.0078,17
22.0376,19
22.0674,16
22.0972,13
22.1269,18
22.1567,22
22.1865,19
22.2163,16
22.2461,18
22.2758,18
22.3056,13
22.3354,12
22.3652,12
22.395,22
22.4247,18
22.4545,17
22.4843,11
22.5141,20
22.5439,16
22.5736,19
22.6034,16
22.6332,29
22.663,14
22.6928,20
22.7225,15
22.7523,28
22.7821,19
22.8119,20
22.8417,25
22.8714,13
22.9012,19
22.931,17
22.9608,22
22.9906,24
23.0203,16
23.0501,14
23.0799,18
23.1097,22
23.1395,23
23.1692,13
23.199,12
23.2288,16
23.2586,15
23.2884,20
23.3181,15
23.3479,14
23.3777,12
23.4075,11
23.4373,13
23.467,7
23.4968,9
23.5266,15
23.5564,18
23.5862,8
23.6159,15
23.6457,16
23.6755,13
23.7053,16
23.7351,13
23.7648,10
23.7946,7
23.8244,9
23.8542,11
23.884,18
23.9137,8
23.9435,14
23.9733,16
24.0031,13
24.0329,10
24.0626,9
24.0924,11
24.1222,12
24.152,9
24.1818,7
24.2115,10
24.2413,10
24.2711,10
24.3009,15
24.3307,10
24.3604,9
24.3902,7
24.42,9
24.4498,11
24.4796,10
24.5093,12
24.5391,11
24.5689,11
24.5987,9
24.6285,12
24.6582,13
24.688,11
24.7178,13
24.7476,14
24.7774,7
24.8071,16
24.8369,15
24.8667,9
24.8965,10
24.9263,12
24.956,6
24.9858,16
25.0156,8
25.0454,13
25.0752,9
25.1049,15
25.1347,10
25.1645,11
25.1943,7
25.2241,10
25.2538,14
25.2836,14
25.3134,12
25.3432,9
25.373,12
25.4027,9
25.4325,7
25.4623,9
25.4921,11
25.5219,14
25.5516,11
25.5814,9
25.6112,15
25.641,8
25.6708,8
25.7005,7
25.7303,6
25.7601,12
25.7899,9
25.8197,12
25.8494,9
25.8792,13
25.909,11
25.9388,10
25.9686,12
25.9983,8
26.0281,9
26.0579,9
26.0877,10
26.1175,9
26.1472,5
26.177,15
26.2068,16
26.2366,6
26.2664,8
26.2961,7
26.3259,13
26.3557,7
26.3855,9
26.4153,7
26.445,2
26.4748,10
26.5046,8
26.5344,13
26.5642,5
26.5939,14
26.6237,9
26.6535,3
26.6833,8
26.7131,10
26.7428,7
26.7726,6
26.8024,7
26.8322,3
26.862,8
26.8917,8
26.9215,9
26.9513,14
26.9811,6
27.0109,7
27.0406,10
27.0704,11
27.1002,2
27.13,13
27.1598,3
27.1895,12
27.2193,7
27.2491,6
27.2789,10
27.3087,5
27.3384,6
27.3682,8
27.398,4
27.4278,6
27.4576,6
27.4873,13
27.5171,6
27.5469,10
27.5767,6
27.6065,2
27.6362,8
27.666,5
27.6958,6
27.7256,6
27.7554,6
27.7851,6
27.8149,8
27.8447,6
27.8745,5
27.9043,10
27.934,3
27.9638,7
27.9936,3
28.0234,6
28.0532,4
28.0829,8
28.1127,8
28.1425,4
28.1723,5
28.2021,4
28.2318,6
28.2616,4
28.2914,5
28.3212,3
28.351,6
28.3807,1
28.4105,4
28.4403,5
28.4701,4
28.4999,4
28.5296,9
28.5594,6
28.5892,5
28.619,8
28.6488,4
28.6785,4
28.7083,4
28.7381,5
28.7679,4
28.7977,4
28.8274,4
28.8572,5
28.887,1
28.9168,3
28.9466,1
28.9763,2
29.0061,4
29.0359,1
29.0657,4
29.0955,2
29.1252,3
29.155,4
29.1848,4
29.2146,4
29.2444,3
29.2741,2
29.3039,4
29.3337,2
29.3635,4
29.3933,3
29.423,1
29.4528,1
29.4826,3
29.5124,3
29.5422,3
29.5719,1
29.6017,2
29.6315,2
29.6613,0
29.6911,4
29.7208,2
29.7506,3
29.7804,4
29.8102,4
29.84,3
29.8697,1
29.8995,1
29.9293,3
29.9591,0
29.9889,0
30.0186,3
30.0484,0
30.0782,1
30.108,3
30.1378,1
30.1675,2
30.1973,2
30.2271,2
30.2569,0
30.2867,1
30.3164,2
30.3462,1
30.376,2
30.4058,3
30.4356,3
30.4653,1
30.4951,3
30.5249,2
30.5547,1
30.5845,0
30.6142,1
30.644,2
30.6738,2
30.7036,1
30.7334,0
30.7631,1
30.7929,2
30.8227,0
30.8525,1
30.8823,0
30.912,1
30.9418,1
30.9716,0
31.0014,0
31.0312,1
31.0609,1
31.0907,1
31.1205,2
31.1503,1
31.1801,0
31.2098,0
31.2396,0
31.2694,2
31.2992,2
31.329,0
31.3587,2
31.3885,1
31.4183,2
31.4481,1
31.4779,2
31.5076,0
31.5374,0
31.5672,0
31.597,1
31.6268,0
31.6565,1
31.6863,0
31.7161,0
31.7459,1
31.7757,2
31.8054,0
31.8352,0
31.865,0
31.8948,1
31.9246,1
31.9543,1
31.9841,1
32.0139,0
32.0437,1
32.0735,0
32.1032,1
32.133,0
32.1628,0
32.1926,0
32.2224,0
32.2521,0
32.2819,0
32.3117,0
32.3415,0
32.3713,0
32.401,0
32.4308,1
32.4606,1
32.4904,0
32.5202,0
32.5499,0
32.5797,0
32.6095,0
32.6393,2
32.6691,0
32.6988,0
32.7286,0
32.7584,0
32.7882,0
32.818,0
32.8477,0
32.8775,1
32.9073,0
32.9371,0
32.9669,0
32.9966,0
33.0264,0
33.0562,0
33.086,0
33.1158,1
33.1455,0
33.1753,0
33.2051,0
33.2349,0
33.2647,0
33.2944,0
33.3242,0
33.354,0
33.3838,0
33.4136,0
33.4433,0
33.4731,0
33.5029,0
33.5327,0
33.5625,0
33.5922,0
33.622,0
33.6518,0
33.6816,0
33.7114,0
33.7411,0
33.7709,0
33.8007,0
33.8305,0
33.8603,0
33.89,0
33.9198,0
33.9496,0
33.9794,0
34.0092,0
34.0389,0
34.0687,0
34.0985,0
34.1283,0
34.1581,0
34.1878,0
34.2176,0
34.2474,0
34.2772,0
34.307,0
34.3367,0
34.3665,0
34.3963,0
34.4261,0
34.4559,0
34.4856,1
34.5154,0
34.5452,0
34.575,0
34.6048,0
34.6345,0
34.6643,0
34.6941,0
34.7239,0
34.7537,0
34.7834,0
34.8132,0
34.843,0
34.8728,0
34.9026,0
34.9323,0
34.9621,0
34.9919,0
35.0217,0
35.0515,0
35.0812,0
35.111,0
35.1408,0
35.1706,0
35.2004,0
35.2301,0
35.2599,0
35.2897,0
35.3195,1
35.3493,0
35.379,0
35.4088,0
35.4386,0
35.4684,0
35.4982,0
35.5279,0
35.5577,0
35.5875,0
35.6173,0
35.6471,0
35.6768,0
35.7066,0
35.7364,0
35.7662,0
35.796,0
35.8257,0
35.8555,0
35.8853,0
35.9151,0
35.9449,0
35.9746,0
36.0044,0
36.0342,0
36.064,0
36.0938,0
36.1235,0
36.1533,0
36.1831,0
36.2129,0
36.2427,0
36.2724,0
36.3022,0
36.332,0
36.3618,0
36.3916,0
36.4213,0
36.4511,0
36.4809,0
36.5107,0
36.5405,0
36.5702,0
36.6,0
36.6298,0
36.6596,0
36.6894,0
36.7191,0
36.7489,0
36.7787,0
36.8085,0
36.8383,0
36.868,0
36.8978,0
36.9276,0
36.9574,0
36.9872,0
37.0169,0
37.0467,0
37.0765,0
37.1063,0
37.1361,0
37.1658,0
37.1956,0
37.2254,0
37.2552,0
37.285,0
37.3147,0
37.3445,0
37.3743,0
37.4041,0
37.4339,0
37.4636,0
37.4934,0
37.5232,0
37.553,0
37.5828,0
37.6125,0
37.6423,0
37.6721,0
37.7019,0
37.7317,0
37.7614,0
37.7912,0
37.821,0
37.8508,0
37.8806,0
37.9103,0
37.9401,0
37.9699,0
37.9997,0
38.0295,0
38.0592,0
38.089,0
38.1188,0
38.1486,0
38.1784,0
38.2081,0
38.2379,0
38.2677,0
38.2975,1
38.3273,0
38.357,0
38.3868,0
38.4166,0
38.4464,0
38.4762,0
38.5059,0
38.5357,0
38.5655,0
38.5953,0
38.6251,1
38.6548,0
38.6846,0
38.7144,0
38.7442,0
38.774,0
38.8037,0
38.8335,0
38.8633,0
38.8931,0
38.9229,0
38.9526,0
38.9824,0
39.0122,0
39.042,0
39.0718,0
39.1015,0
39.1313,0
39.1611,0
39.1909,0
39.2207,0
39.2504,0
39.2802,0
39.31,0
39.3398,0
39.3696,0
39.3993,0
39.4291,0
39.4589,0
39.4887,0
39.5185,0
39.5482,0
39.578,0
39.6078,0
39.6376,0
39.6674,0
39.6971,0
39.7269,0
39.7567,0
39.7865,0
39.8163,0
39.846,0
39.8758,0
39.9056,0
39.9354,0
39.9652,0
39.9949,0
40.0247,0
40.0545,0
40.0843,0
40.1141,0
40.1438,0
40.1736,0
40.2034,0
40.2332,0
40.263,0
40.2927,0
40.3225,0
40.3523,0
40.3821,0
40.4119,0
40.4416,0
40.4714,0
40.5012,0
40.531,0
40.5608,0
40.5905,0
40.6203,0
40.6501,0
40.6799,0
40.7097,0
40.7394,0
40.7692,0
40.799,0
40.8288,0
40.8586,0
40.8883,0
40.9181,0
40.9479,0
40.9777,1
41.0075,0
41.0372,0
41.067,0
41.0968,0
41.1266,0
41.1564,0
41.1861,0
41.2159,0
41.2457,0
41.2755,0
41.3053,0
41.335,0
41.3648,0
41.3946,0
41.4244,0
41.4542,0
41.4839,0
41.5137,0
41.5435,0
41.5733,0
41.6031,0
41.6328,0
41.6626,0
41.6924,1
41.7222,0
41.752,0
41.7817,0
41.8115,0
41.8413,0
41.8711,0
41.9009,0
41.9306,0
41.9604,0
41.9902,0
42.02,0
42.0498,0
42.0795,0
42.1093,0
42.1391,0
42.1689,0
42.1987,0
42.2284,0
42.2582,0
42.288,0
42.3178,0
42.3476,0
42.3773,0
42.4071,0
42.4369,0
42.4667,0
42.4965,0
42.5262,0
42.556,0
42.5858,0
42.6156,0
42.6454,0
42.6751,0
42.7049,0
42.7347,0
42.7645,0
42.7943,0
42.824,0
42.8538,0
42.8836,0
42.9134,0
42.9432,0
42.9729,0
43.0027,0
43.0325,0
43.0623,0
43.0921,0
43.1218,0
43.1516,0
43.1814,0
43.2112,0
43.241,0
43.2707,0
43.3005,0
43.3303,0
43.3601,0
43.3899,0
43.4196,0
43.4494,0
43.4792,0
43.509,0
43.5388,0
43.5685,0
43.5983,0
43.6281,0
43.6579,0
43.6877,0
43.7174,0
43.7472,0
43.777,0
43.8068,0
43.8366,0
43.8663,0
43.8961,0
43.9259,0
43.9557,0
43.9855,0
44.0152,0
44.045,0
44.0748,0
44.1046,0
44.1344,0
44.1641,0
44.1939,0
44.2237,0
44.2535,0
44.2833,0
44.313,0
44.3428,0
44.3726,0
44.4024,0
44.4322,0
44.4619,0
44.4917,0
44.5215,0
44.5513,0
44.5811,0
44.6108,0
44.6406,0
44.6704,0
44.7002,0
44.73,0
44.7597,0
44.7895,0
44.8193,0
44.8491,0
44.8789,0
44.9086,0
44.9384,0
44.9682,0
44.998,0
45.0278,0
45.0575,0
45.0873,0
45.1171,0
45.1469,0
45.1767,0
45.2064,0
45.2362,0
45.266,0
45.2958,0
45.3256,0
45.3553,0
45.3851,0
45.4149,0
45.4447,0
45.4745,0
45.5042,0
45.534,0
45.5638,0
45.5936,0
45.6234,0
45.6531,0
45.6829,0
45.7127,0
45.7425,0
45.7723,0
45.802,0
45.8318,0
45.8616,0
45.8914,0
45.9212,0
45.9509,1
45.9807,0
46.0105,0
46.0403,0
46.0701,0
46.0998,0
46.1296,0
46.1594,0
46.1892,0
46.219,0
46.2487,0
46.2785,0
46.3083,0
46.3381,0
46.3679,0
46.3976,0
46.4274,1
46.4572,0
46.487,0
46.5168,0
46.5465,0
46.5763,0
46.6061,0
46.6359,0
46.6657,0
46.6954,0
46.7252,0
46.755,0
46.7848,0
46.8146,0
46.8443,0
46.8741,0
46.9039,0
46.9337,0
46.9635,0
46.9932,0
47.023,0
47.0528,0
47.0826,0
47.1124,0
47.1421,1
47.1719,0
47.2017,0
47.2315,0
47.2613,0
47.291,0
47.3208,0
47.3506,1
47.3804,0
47.4102,0
47.4399,0
47.4697,0
47.4995,0
47.5293,0
47.5591,0
47.5888,0
47.6186,0
47.6484,0
47.6782,0
47.708,0
47.7377,0
47.7675,0
47.7973,0
47.8271,0
47.8569,0
47.8866,0
47.9164,0
47.9462,0
47.976,0
48.0058,0
48.0355,0
48.0653,0
48.0951,0
48.1249,0
48.1547,0
48.1844,0
48.2142,0
48.244,0
48.2738,0
48.3036,0
48.3333,0
48.3631,0
48.3929,0
48.4227,0
48.4525,0
48.4822,0
48.512,0
48.5418,0
48.5716,0
48.6014,0
48.6311,0
48.6609,0
48.6907,0
48.7205,0
48.7503,0
48.78,0
48.8098,0
48.8396,0
48.8694,0
48.8992,0
48.9289,0
48.9587,0
48.9885,0
49.0183,0
49.0481,0
49.0778,0
49.1076,0
49.1374,0
49.1672,0
49.197,0
49.2267,1
49.2565,0
49.2863,0
49.3161,0
49.3459,0
49.3756,0
49.4054,0
49.4352,0
49.465,0
49.4948,0
49.5245,0
49.5543,0
49.5841,0
49.6139,0
49.6437,0
49.6734,0
49.7032,0
49.733,0
49.7628,0
49.7926,0
49.8223,0
49.8521,1
49.8819,0
49.9117,0
49.9415,0
49.9712,0
50.001,0
50.0308,0
50.0606,0
50.0904,0
50.1201,0
50.1499,0
50.1797,0
50.2095,0
50.2393,0
50.269,0
50.2988,0
50.3286,0
50.3584,0
50.3882,0
50.4179,0
50.4477,0
50.4775,0
50.5073,0
50.5371,0
50.5668,0
50.5966,0
50.6264,0
50.6562,0
50.686,0
50.7157,0
50.7455,0
50.7753,0
50.8051,0
50.8349,0
50.8646,0
50.8944,0
50.9242,0
50.954,0
50.9838,0
51.0135,0
51.0433,0
51.0731,0
51.1029,0
51.1327,0
51.1624,0
51.1922,0
51.222,0
51.2518,0
51.2816,1
51.3113,0
51.3411,0
51.3709,0
51.4007,1
51.4305,0
51.4602,0
51.49,0
51.5198,0
51.5496,0
51.5794,0
51.6091,0
51.6389,0
51.6687,0
51.6985,0
51.7283,0
51.758,0
51.7878,0
51.8176,0
51.8474,1
51.8772,0
51.9069,0
51.9367,0
51.9665,0
51.9963,0
52.0261,0
52.0558,0
52.0856,1
52.1154,0
52.1452,1
52.175,0
52.2047,0
52.2345,0
52.2643,0
52.2941,0
52.3239,0
52.3536,0
52.3834,0
52.4132,0
52.443,0
52.4728,0
52.5025,0
52.5323,0
52.5621,0
52.5919,0
52.6217,0
52.6514,1
52.6812,0
52.711,0
52.7408,0
52.7706,0
52.8003,0
52.8301,0
52.8599,0
52.8897,0
52.9195,0
52.9492,0
52.979,0
53.0088,0
53.0386,0
53.0684,0
53.0981,1
53.1279,0
53.1577,0
53.1875,0
53.2173,1
53.247,0
53.2768,0
53.3066,0
53.3364,0
53.3662,0
53.3959,0
53.4257,0
53.4555,0
53.4853,0
53.5151,0
53.5448,1
53.5746,0
53.6044,0
53.6342,0
53.664,0
53.6937,0
53.7235,0
53.7533,0
53.7831,0
53.8129,0
53.8426,0
53.8724,0
53.9022,0
53.932,0
53.9618,0
53.9915,0
54.0213,0
54.0511,0
54.0809,0
54.1107,0
54.1404,0
54.1702,0
54.2,0
54.2298,1
54.2596,0
54.2893,1
54.3191,0
54.3489,0
54.3787,0
54.4085,0
54.4382,0
54.468,0
54.4978,0
54.5276,0
54.5574,0
54.5871,0
54.6169,0
54.6467,0
54.6765,0
54.7063,0
54.736,0
54.7658,0
54.7956,0
54.8254,0
54.8552,0
54.8849,0
54.9147,0
54.9445,0
54.9743,0
55.0041,0
55.0338,0
55.0636,0
55.0934,0
55.1232,0
55.153,0
55.1827,0
55.2125,0
55.2423,0
55.2721,0
55.3019,1
55.3316,0
55.3614,0
55.3912,0
55.421,0
55.4508,0
55.4805,0
55.5103,0
55.5401,0
55.5699,0
55.5997,0
55.6294,0
55.6592,0
55.689,0
55.7188,0
55.7486,0
55.7783,0
55.8081,0
55.8379,0
55.8677,0
55.8975,0
55.9272,0
55.957,0
55.9868,0
56.0166,0
56.0464,0
56.0761,0
56.1059,0
56.1357,0
56.1655,0
56.1953,0
56.225,0
56.2548,0
56.2846,0
56.3144,0
56.3442,0
56.3739,0
56.4037,0
56.4335,0
56.4633,0
56.4931,0
56.5228,0
56.5526,0
56.5824,0
56.6122,0
56.642,0
56.6717,0
56.7015,0
56.7313,0
56.7611,0
56.7909,0
56.8206,0
56.8504,0
56.8802,0
56.91,0
56.9398,0
56.9695,0
56.9993,0
57.0291,0
57.0589,0
57.0887,0
57.1184,0
57.1482,0
57.178,0
57.2078,0
57.2376,0
57.2673,0
57.2971,0
57.3269,0
57.3567,0
57.3865,0
57.4162,0
57.446,0
57.4758,0
57.5056,0
57.5354,0
57.5651,0
57.5949,0
57.6247,0
57.6545,0
57.6843,0
57.714,0
57.7438,0
57.7736,0
57.8034,0
57.8332,0
57.8629,0
57.8927,0
57.9225,0
57.9523,0
57.9821,0
58.0118,0
58.0416,0
58.0714,0
58.1012,0
58.131,0
58.1607,0
58.1905,0
58.2203,0
58.2501,0
58.2799,0
58.3096,0
58.3394,0
58.3692,0
58.399,0
58.4288,0
58.4585,0
58.4883,0
58.5181,0
58.5479,0
58.5777,0
58.6074,0
58.6372,0
58.667,0
58.6968,0
58.7266,0
58.7563,0
58.7861,0
58.8159,0
58.8457,0
58.8755,0
58.9052,0
58.935,0
58.9648,0
58.9946,0
59.0244,0
59.0541,1
59.0839,0
59.1137,0
59.1435,0
59.1733,0
59.203,0
59.2328,0
59.2626,1
59.2924,0
59.3222,0
59.3519,1
59.3817,0
59.4115,0
59.4413,1
59.4711,1
59.5008,1
59.5306,0
59.5604,1
59.5902,1
59.62,0
59.6497,0
59.6795,1
59.7093,0
59.7391,0
59.7689,0
59.7986,0
59.8284,0
59.8582,0
59.888,0
59.9178,0
59.9475,0
59.9773,0
60.0071,0
60.0369,0
60.0667,0
60.0964,0
60.1262,0
60.156,0
60.1858,0
60.2156,0
60.2453,0
60.2751,0
60.3049,0
60.3347,0
60.3645,0
60.3942,0
60.424,0
60.4538,0
60.4836,0
60.5134,0
60.5431,0
60.5729,0
60.6027,0
60.6325,0
60.6623,0
60.692,0
60.7218,0
60.7516,0
60.7814,0
60.8112,0
60.8409,0
60.8707,0
60.9005,0
60.9303,0
60.9601,0
60.9898,0
61.0196,0
