Energy 	Counts
0.0004,0
0.03018,0
0.05996,0
0.08974,0
0.11952,0
0.1493,0
0.17908,0
0.20886,0
0.23864,0
0.26842,0
0.2982,0
0.32798,0
0.35776,3
0.38754,9
0.41732,15
0.4471,15
0.47688,19
0.50666,16
0.53644,9
0.56622,18
0.596,13
0.62578,14
0.65556,16
0.68534,9
0.71512,20
0.7449,16
0.77468,21
0.80446,14
0.83424,12
0.86402,9
0.8938,13
0.92358,11
0.95336,15
0.98314,13
1.01292,13
1.0427,15
1.07248,11
1.10226,13
1.13204,9
1.16182,6
1.1916,7
1.22138,10
1.25116,7
1.28094,9
1.31072,5
1.3405,7
1.37028,9
1.40006,11
1.42984,9
1.45962,8
1.4894,11
1.51918,7
1.54896,8
1.57874,5
1.60852,5
1.6383,7
1.66808,4
1.69786,2
1.72764,7
1.75742,9
1.7872,4
1.81698,4
1.84676,11
1.87654,13
1.90632,8
1.9361,8
1.96588,6
1.99566,7
2.02544,9
2.05522,4
2.085,9
2.11478,3
2.14456,3
2.17434,6
2.20412,8
2.2339,4
2.26368,9
2.29346,7
2.32324,3
2.35302,7
2.3828,7
2.41258,9
2.44236,10
2.47214,9
2.50192,12
2.5317,10
2.56148,14
2.59126,6
2.62104,11
2.65082,6
2.6806,8
2.71038,10
2.74016,5
2.76994,17
2.79972,14
2.8295,12
2.85928,19
2.88906,21
2.91884,36
2.94862,28
2.9784,26
3.00818,26
3.03796,21
3.06774,12
3.09752,10
3.1273,11
3.15708,6
3.18686,9
3.21664,10
3.24642,6
3.2762,6
3.30598,6
3.33576,6
3.36554,12
3.39532,5
3.4251,4
3.45488,9
3.48466,4
3.51444,7
3.54422,7
3.574,7
3.60378,5
3.63356,10
3.66334,5
3.69312,5
3.7229,4
3.75268,4
3.78246,8
3.81224,6
3.84202,5
3.8718,2
3.90158,4
3.93136,4
3.96114,3
3.99092,3
4.0207,9
4.05048,1
4.08026,5
4.11004,7
4.13982,8
4.1696,10
4.19938,9
4.22916,3
4.25894,2
4.28872,6
4.3185,6
4.34828,4
4.37806,8
4.40784,5
4.43762,5
4.4674,3
4.49718,8
4.52696,6
4.55674,2
4.58652,4
4.6163,9
4.64608,7
4.67586,1
4.70564,4
4.73542,6
4.7652,11
4.79498,9
4.82476,10
4.85454,10
4.88432,10
4.9141,5
4.94388,7
4.97366,7
5.00344,8
5.03322,12
5.063,6
5.09278,10
5.12256,11
5.15234,10
5.18212,14
5.2119,17
5.24168,13
5.27146,13
5.30124,17
5.33102,9
5.3608,12
5.39058,12
5.42036,7
5.45014,5
5.47992,11
5.5097,11
5.53948,11
5.56926,10
5.59904,12
5.62882,5
5.6586,14
5.68838,13
5.71816,8
5.74794,7
5.77772,7
5.8075,12
5.83728,10
5.86706,14
5.89684,7
5.92662,10
5.9564,10
5.98618,18
6.01596,14
6.04574,18
6.07552,23
6.1053,22
6.13508,29
6.16486,30
6.19464,31
6.22442,26
6.2542,22
6.28398,34
6.31376,33
6.34354,55
6.37332,67
6.4031,47
6.43288,38
6.46266,43
6.49244,35
6.52222,25
6.552,16
6.58178,12
6.61156,15
6.64134,12
6.67112,12
6.7009,13
6.73068,21
6.76046,13
6.79024,10
6.82002,16
6.8498,13
6.87958,13
6.90936,12
6.93914,21
6.96892,14
6.9987,21
7.02848,25
7.05826,28
7.08804,25
7.11782,29
7.1476,27
7.17738,15
7.20716,26
7.23694,28
7.26672,36
7.2965,22
7.32628,27
7.35606,36
7.38584,61
7.41562,50
7.4454,52
7.47518,48
7.50496,64
7.53474,44
7.56452,55
7.5943,31
7.62408,33
7.65386,35
7.68364,30
7.71342,34
7.7432,56
7.77298,68
7.80276,168
7.83254,317
7.86232,615
7.8921,1157
7.92188,1903
7.95166,2954
7.98144,3933
8.01122,4554
8.041,5033
8.07078,4690
8.10056,3951
8.13034,3114
8.16012,2110
8.1899,1308
8.21968,716
8.24946,328
8.27924,161
8.30902,71
8.3388,54
8.36858,38
8.39836,26
8.42814,26
8.45792,25
8.4877,15
8.51748,35
8.54726,21
8.57704,36
8.60682,28
8.6366,44
8.66638,51
8.69616,70
8.72594,123
8.75572,205
8.7855,320
8.81528,456
8.84506,565
8.87484,704
8.90462,774
8.9344,630
8.96418,592
8.99396,513
9.02374,315
9.05352,186
9.0833,118
9.11308,57
9.14286,44
9.17264,23
9.20242,10
9.2322,11
9.26198,13
9.29176,10
9.32154,5
9.35132,9
9.3811,9
9.41088,11
9.44066,9
9.47044,12
9.50022,10
9.53,15
9.55978,12
9.58956,16
9.61934,14
9.64912,9
9.6789,10
9.70868,12
9.73846,7
9.76824,7
9.79802,8
9.8278,10
9.85758,9
9.88736,8
9.91714,6
9.94692,10
9.9767,9
10.0065,8
10.0363,10
10.066,12
10.0958,10
10.1256,6
10.1554,7
10.1852,4
10.2149,6
10.2447,10
10.2745,5
10.3043,7
10.3341,6
10.3638,8
10.3936,7
10.4234,5
10.4532,6
10.483,8
10.5127,7
10.5425,6
10.5723,10
10.6021,4
10.6319,15
10.6616,12
10.6914,8
10.7212,11
10.751,11
10.7808,3
10.8105,9
10.8403,9
10.8701,6
10.8999,7
10.9297,8
10.9594,11
10.9892,13
11.019,7
11.0488,6
11.0786,9
11.1083,14
11.1381,9
11.1679,7
11.1977,9
11.2275,6
11.2572,17
11.287,4
11.3168,10
11.3466,5
11.3764,13
11.4061,14
11.4359,11
11.4657,11
11.4955,8
11.5253,16
11.555,5
11.5848,8
11.6146,19
11.6444,7
11.6742,13
11.7039,9
11.7337,8
11.7635,5
11.7933,8
11.8231,6
11.8528,7
11.8826,7
11.9124,9
11.9422,10
11.972,8
12.0017,11
12.0315,10
12.0613,6
12.0911,7
12.1209,12
12.1506,7
12.1804,8
12.2102,13
12.24,12
12.2698,8
12.2995,4
12.3293,9
12.3591,8
12.3889,7
12.4187,7
12.4484,9
12.4782,12
12.508,14
12.5378,11
12.5676,13
12.5973,6
12.6271,9
12.6569,4
12.6867,15
12.7165,7
12.7462,13
12.776,6
12.8058,10
12.8356,9
12.8654,5
12.8951,11
12.9249,4
12.9547,9
12.9845,11
13.0143,13
13.044,11
13.0738,10
13.1036,9
13.1334,8
13.1632,9
13.1929,11
13.2227,15
13.2525,10
13.2823,8
13.3121,9
13.3418,12
13.3716,5
13.4014,9
13.4312,8
13.461,15
13.4907,12
13.5205,11
13.5503,4
13.5801,11
13.6099,11
13.6396,14
13.6694,10
13.6992,7
13.729,12
13.7588,6
13.7885,12
13.8183,12
13.8481,16
13.8779,12
13.9077,12
13.9374,11
13.9672,7
13.997,7
14.0268,17
14.0566,8
14.0863,12
14.1161,10
14.1459,16
14.1757,10
14.2055,8
14.2352,19
14.265,11
14.2948,12
14.3246,14
14.3544,12
14.3841,9
14.4139,7
14.4437,16
14.4735,8
14.5033,7
14.533,17
14.5628,8
14.5926,11
14.6224,8
14.6522,10
14.6819,12
14.7117,15
14.7415,15
14.7713,7
14.8011,17
14.8308,10
14.8606,13
14.8904,13
14.9202,9
14.95,6
14.9797,5
15.0095,9
15.0393,12
15.0691,12
15.0989,11
15.1286,12
15.1584,9
15.1882,17
15.218,14
15.2478,7
15.2775,13
15.3073,17
15.3371,10
15.3669,16
15.3967,11
15.4264,14
15.4562,10
15.486,18
15.5158,10
15.5456,11
15.5753,12
15.6051,8
15.6349,16
15.6647,12
15.6945,6
15.7242,9
15.754,10
15.7838,13
15.8136,17
15.8434,9
15.8731,18
15.9029,19
15.9327,18
15.9625,12
15.9923,11
16.022,9
16.0518,15
16.0816,19
16.1114,18
16.1412,15
16.1709,8
16.2007,14
16.2305,17
16.2603,12
16.2901,7
16.3198,13
16.3496,16
16.3794,16
16.4092,10
16.439,11
16.4687,14
16.4985,9
16.5283,11
16.5581,8
16.5879,10
16.6176,10
16.6474,9
16.6772,19
16.707,9
16.7368,14
16.7665,16
16.7963,16
16.8261,15
16.8559,12
16.8857,19
16.9154,6
16.9452,12
16.975,18
17.0048,15
17.0346,13
17.0643,12
17.0941,12
17.1239,13
17.1537,15
17.1835,9
17.2132,14
17.243,12
17.2728,11
17.3026,11
17.3324,20
17.3621,8
17.3919,12
17.4217,8
17.4515,16
17.4813,14
17.511,13
17.5408,9
17.5706,7
17.6004,10
17.6302,16
17.6599,8
17.6897,9
17.7195,17
17.7493,13
17.7791,17
17.8088,13
17.8386,15
17.8684,9
17.8982,19
17.928,21
17.9577,15
17.9875,15
18.0173,17
18.0471,13
18.0769,16
18.1066,26
18.1364,16
18.1662,17
18.196,17
18.2258,15
18.2555,14
18.2853,20
18.3151,22
18.3449,22
18.3747,26
18.4044,19
18.4342,27
18.464,32
18.4938,28
18.5236,27
18.5533,23
18.5831,34
18.6129,28
18.6427,21
18.6725,29
18.7022,25
18.732,32
18.7618,28
18.7916,27
18.8214,35
18.8511,34
18.8809,45
18.9107,28
18.9405,30
18.9703,37
19,38
19.0298,37
19.0596,24
19.0894,29
19.1192,22
19.1489,25
19.1787,19
19.2085,22
19.2383,29
19.2681,30
19.2978,26
19.3276,17
19.3574,18
19.3872,19
19.417,18
19.4467,15
19.4765,26
19.5063,13
19.5361,14
19.5659,23
19.5956,22
19.6254,21
19.6552,13
19.685,21
19.7148,17
19.7445,17
19.7743,13
19.8041,15
19.8339,9
19.8637,16
19.8934,18
19.9232,31
19.953,32
19.9828,17
20.0126,20
20.0423,25
20.0721,31
20.1019,32
20.1317,28
20.1615,31
20.1912,37
20.221,38
20.2508,32
20.2806,33
20.3104,30
20.3401,27
20.3699,27
20.3997,20
20.4295,19
20.4593,21
20.489,12
20.5188,18
20.5486,17
20.5784,12
20.6082,14
20.6379,21
20.6677,10
20.6975,9
20.7273,20
20.7571,13
20.7868,22
20.8166,25
20.8464,17
20.8762,13
20.906,25
20.9357,16
20.9655,23
20.9953,24
21.0251,16
21.0549,23
21.0846,15
21.1144,17
21.1442,12
21.174,15
21.2038,17
21.2335,20
21.2633,17
21.2931,19
21.3229,12
21.3527,20
21.3824,16
21.4122,20
21.442,21
21.4718,18
21.5016,16
21.5313,12
21.5611,13
21.5909,10
21.6207,13
21.6505,14
21.6802,15
21.71,8
21.7398,16
21.7696,23
21.7994,10
21.8291,15
21.8589,10
21.8887,10
21.9185,4
21.9483,7
21.978,17
22.0078,8
22.0376,12
22.0674,14
22.0972,12
22.1269,20
22.1567,14
22.1865,14
22.2163,9
22.2461,14
22.2758,11
22.3056,10
22.3354,11
22.3652,17
22.395,17
22.4247,11
22.4545,13
22.4843,7
22.5141,15
22.5439,14
22.5736,15
22.6034,11
22.6332,18
22.663,13
22.6928,18
22.7225,18
22.7523,20
22.7821,17
22.8119,18
22.8417,17
22.8714,11
22.9012,26
22.931,20
22.9608,12
22.9906,21
23.0203,20
23.0501,11
23.0799,26
23.1097,21
23.1395,11
23.1692,13
23.199,13
23.2288,11
23.2586,12
23.2884,13
23.3181,10
23.3479,10
23.3777,15
23.4075,8
23.4373,11
23.467,9
23.4968,15
23.5266,11
23.5564,8
23.5862,7
23.6159,10
23.6457,8
23.6755,11
23.7053,9
23.7351,8
23.7648,12
23.7946,11
23.8244,10
23.8542,9
23.884,13
23.9137,13
23.9435,8
23.9733,7
24.0031,9
24.0329,8
24.0626,10
24.0924,11
24.1222,11
24.152,11
24.1818,12
24.2115,14
24.2413,10
24.2711,5
24.3009,11
24.3307,4
24.3604,10
24.3902,5
24.42,6
24.4498,13
24.4796,13
24.5093,5
24.5391,5
24.5689,9
24.5987,10
24.6285,14
24.6582,16
24.688,6
24.7178,17
24.7476,10
24.7774,11
24.8071,4
24.8369,12
24.8667,10
24.8965,8
24.9263,8
24.956,12
24.9858,10
25.0156,11
25.0454,9
25.0752,9
25.1049,12
25.1347,10
25.1645,12
25.1943,13
25.2241,4
25.2538,3
25.2836,6
25.3134,12
25.3432,12
25.373,9
25.4027,6
25.4325,13
25.4623,3
25.4921,8
25.5219,6
25.5516,6
25.5814,6
25.6112,8
25.641,7
25.6708,12
25.7005,6
25.7303,9
25.7601,9
25.7899,12
25.8197,10
25.8494,10
25.8792,7
25.909,12
25.9388,5
25.9686,8
25.9983,5
26.0281,4
26.0579,5
26.0877,6
26.1175,6
26.1472,9
26.177,8
26.2068,4
26.2366,5
26.2664,4
26.2961,6
26.3259,4
26.3557,10
26.3855,7
26.4153,2
26.445,8
26.4748,10
26.5046,5
26.5344,10
26.5642,5
26.5939,12
26.6237,5
26.6535,6
26.6833,10
26.7131,5
26.7428,8
26.7726,13
26.8024,6
26.8322,5
26.862,12
26.8917,8
26.9215,5
26.9513,7
26.9811,9
27.0109,8
27.0406,7
27.0704,8
27.1002,7
27.13,4
27.1598,3
27.1895,8
27.2193,4
27.2491,5
27.2789,4
27.3087,7
27.3384,8
27.3682,3
27.398,4
27.4278,12
27.4576,6
27.4873,4
27.5171,5
27.5469,8
27.5767,5
27.6065,4
27.6362,7
27.666,6
27.6958,5
27.7256,6
27.7554,3
27.7851,8
27.8149,5
27.8447,3
27.8745,4
27.9043,8
27.934,4
27.9638,2
27.9936,5
28.0234,4
28.0532,0
28.0829,3
28.1127,4
28.1425,3
28.1723,5
28.2021,1
28.2318,4
28.2616,8
28.2914,3
28.3212,3
28.351,3
28.3807,2
28.4105,13
28.4403,5
28.4701,5
28.4999,5
28.5296,7
28.5594,2
28.5892,6
28.619,4
28.6488,3
28.6785,6
28.7083,2
28.7381,7
28.7679,3
28.7977,3
28.8274,3
28.8572,3
28.887,0
28.9168,2
28.9466,3
28.9763,4
29.0061,4
29.0359,2
29.0657,0
29.0955,3
29.1252,2
29.155,3
29.1848,3
29.2146,1
29.2444,2
29.2741,3
29.3039,3
29.3337,1
29.3635,3
29.3933,2
29.423,3
29.4528,1
29.4826,0
29.5124,1
29.5422,2
29.5719,1
29.6017,2
29.6315,2
29.6613,4
29.6911,2
29.7208,1
29.7506,3
29.7804,1
29.8102,2
29.84,1
29.8697,3
29.8995,0
29.9293,2
29.9591,4
29.9889,1
30.0186,3
30.0484,1
30.0782,0
30.108,2
30.1378,3
30.1675,1
30.1973,1
30.2271,1
30.2569,1
30.2867,1
30.3164,0
30.3462,0
30.376,2
30.4058,3
30.4356,0
30.4653,1
30.4951,0
30.5249,0
30.5547,0
30.5845,0
30.6142,2
30.644,0
30.6738,0
30.7036,1
30.7334,1
30.7631,3
30.7929,0
30.8227,1
30.8525,0
30.8823,0
30.912,2
30.9418,2
30.9716,1
31.0014,1
31.0312,1
31.0609,0
31.0907,0
31.1205,1
31.1503,0
31.1801,0
31.2098,0
31.2396,3
31.2694,1
31.2992,0
31.329,0
31.3587,0
31.3885,2
31.4183,0
31.4481,0
31.4779,0
31.5076,0
31.5374,0
31.5672,0
31.597,0
31.6268,1
31.6565,1
31.6863,0
31.7161,0
31.7459,0
31.7757,1
31.8054,0
31.8352,0
31.865,0
31.8948,0
31.9246,0
31.9543,0
31.9841,0
32.0139,1
32.0437,0
32.0735,0
32.1032,0
32.133,0
32.1628,1
32.1926,0
32.2224,0
32.2521,1
32.2819,0
32.3117,0
32.3415,0
32.3713,1
32.401,0
32.4308,2
32.4606,0
32.4904,1
32.5202,0
32.5499,1
32.5797,1
32.6095,0
32.6393,0
32.6691,0
32.6988,0
32.7286,0
32.7584,0
32.7882,0
32.818,0
32.8477,1
32.8775,0
32.9073,0
32.9371,0
32.9669,0
32.9966,0
33.0264,0
33.0562,0
33.086,0
33.1158,1
33.1455,0
33.1753,0
33.2051,0
33.2349,1
33.2647,0
33.2944,0
33.3242,0
33.354,0
33.3838,0
33.4136,0
33.4433,0
33.4731,0
33.5029,0
33.5327,0
33.5625,0
33.5922,0
33.622,0
33.6518,0
33.6816,0
33.7114,0
33.7411,0
33.7709,0
33.8007,0
33.8305,1
33.8603,0
33.89,0
33.9198,0
33.9496,0
33.9794,0
34.0092,0
34.0389,0
34.0687,0
34.0985,0
34.1283,0
34.1581,0
34.1878,0
34.2176,0
34.2474,0
34.2772,0
34.307,0
34.3367,0
34.3665,0
34.3963,0
34.4261,0
34.4559,0
34.4856,0
34.5154,0
34.5452,0
34.575,0
34.6048,0
34.6345,0
34.6643,0
34.6941,0
34.7239,0
34.7537,0
34.7834,0
34.8132,0
34.843,0
34.8728,0
34.9026,0
34.9323,0
34.9621,0
34.9919,0
35.0217,0
35.0515,0
35.0812,0
35.111,0
35.1408,0
35.1706,0
35.2004,0
35.2301,0
35.2599,0
35.2897,0
35.3195,0
35.3493,1
35.379,0
35.4088,0
35.4386,0
35.4684,0
35.4982,0
35.5279,0
35.5577,0
35.5875,0
35.6173,0
35.6471,0
35.6768,0
35.7066,0
35.7364,0
35.7662,0
35.796,0
35.8257,0
35.8555,0
35.8853,0
35.9151,0
35.9449,0
35.9746,0
36.0044,0
36.0342,0
36.064,0
36.0938,0
36.1235,0
36.1533,0
36.1831,0
36.2129,0
36.2427,0
36.2724,0
36.3022,0
36.332,0
36.3618,0
36.3916,0
36.4213,0
36.4511,0
36.4809,0
36.5107,0
36.5405,0
36.5702,0
36.6,0
36.6298,0
36.6596,0
36.6894,0
36.7191,0
36.7489,1
36.7787,0
36.8085,0
36.8383,0
36.868,0
36.8978,0
36.9276,0
36.9574,0
36.9872,0
37.0169,0
37.0467,0
37.0765,0
37.1063,0
37.1361,0
37.1658,0
37.1956,0
37.2254,0
37.2552,0
37.285,0
37.3147,0
37.3445,1
37.3743,0
37.4041,0
37.4339,0
37.4636,0
37.4934,0
37.5232,0
37.553,0
37.5828,0
37.6125,0
37.6423,0
37.6721,0
37.7019,0
37.7317,0
37.7614,0
37.7912,0
37.821,0
37.8508,0
37.8806,0
37.9103,0
37.9401,0
37.9699,0
37.9997,0
38.0295,0
38.0592,0
38.089,0
38.1188,0
38.1486,0
38.1784,0
38.2081,0
38.2379,0
38.2677,0
38.2975,0
38.3273,0
38.357,0
38.3868,0
38.4166,0
38.4464,0
38.4762,0
38.5059,0
38.5357,0
38.5655,0
38.5953,0
38.6251,0
38.6548,0
38.6846,0
38.7144,0
38.7442,0
38.774,0
38.8037,0
38.8335,0
38.8633,0
38.8931,0
38.9229,0
38.9526,0
38.9824,0
39.0122,0
39.042,0
39.0718,0
39.1015,0
39.1313,0
39.1611,0
39.1909,0
39.2207,0
39.2504,0
39.2802,0
39.31,0
39.3398,0
39.3696,0
39.3993,0
39.4291,0
39.4589,0
39.4887,0
39.5185,0
39.5482,0
39.578,0
39.6078,0
39.6376,0
39.6674,0
39.6971,0
39.7269,0
39.7567,0
39.7865,0
39.8163,0
39.846,0
39.8758,0
39.9056,0
39.9354,0
39.9652,0
39.9949,0
40.0247,0
40.0545,0
40.0843,0
40.1141,0
40.1438,0
40.1736,0
40.2034,0
40.2332,0
40.263,0
40.2927,0
40.3225,0
40.3523,0
40.3821,0
40.4119,0
40.4416,0
40.4714,0
40.5012,0
40.531,0
40.5608,0
40.5905,0
40.6203,0
40.6501,0
40.6799,0
40.7097,0
40.7394,0
40.7692,0
40.799,0
40.8288,1
40.8586,0
40.8883,0
40.9181,0
40.9479,0
40.9777,0
41.0075,0
41.0372,0
41.067,0
41.0968,0
41.1266,0
41.1564,0
41.1861,0
41.2159,0
41.2457,0
41.2755,0
41.3053,0
41.335,0
41.3648,0
41.3946,0
41.4244,0
41.4542,0
41.4839,0
41.5137,0
41.5435,0
41.5733,0
41.6031,0
41.6328,0
41.6626,0
41.6924,0
41.7222,0
41.752,0
41.7817,0
41.8115,0
41.8413,0
41.8711,0
41.9009,0
41.9306,0
41.9604,0
41.9902,0
42.02,0
42.0498,0
42.0795,0
42.1093,0
42.1391,0
42.1689,0
42.1987,0
42.2284,0
42.2582,0
42.288,0
42.3178,0
42.3476,0
42.3773,0
42.4071,0
42.4369,0
42.4667,0
42.4965,0
42.5262,0
42.556,0
42.5858,0
42.6156,0
42.6454,0
42.6751,0
42.7049,0
42.7347,0
42.7645,0
42.7943,0
42.824,0
42.8538,0
42.8836,0
42.9134,0
42.9432,0
42.9729,0
43.0027,0
43.0325,0
43.0623,0
43.0921,0
43.1218,0
43.1516,1
43.1814,0
43.2112,0
43.241,0
43.2707,0
43.3005,0
43.3303,0
43.3601,0
43.3899,0
43.4196,0
43.4494,0
43.4792,0
43.509,1
43.5388,0
43.5685,0
43.5983,0
43.6281,0
43.6579,0
43.6877,0
43.7174,0
43.7472,0
43.777,0
43.8068,0
43.8366,0
43.8663,0
43.8961,0
43.9259,0
43.9557,0
43.9855,0
44.0152,0
44.045,0
44.0748,0
44.1046,0
44.1344,0
44.1641,0
44.1939,0
44.2237,0
44.2535,0
44.2833,0
44.313,0
44.3428,0
44.3726,0
44.4024,0
44.4322,0
44.4619,0
44.4917,0
44.5215,0
44.5513,0
44.5811,0
44.6108,0
44.6406,0
44.6704,0
44.7002,0
44.73,0
44.7597,0
44.7895,0
44.8193,0
44.8491,0
44.8789,0
44.9086,0
44.9384,0
44.9682,0
44.998,0
45.0278,0
45.0575,1
45.0873,0
45.1171,0
45.1469,0
45.1767,0
45.2064,0
45.2362,0
45.266,0
45.2958,1
45.3256,0
45.3553,0
45.3851,0
45.4149,0
45.4447,0
45.4745,0
45.5042,0
45.534,0
45.5638,0
45.5936,0
45.6234,0
45.6531,0
45.6829,0
45.7127,0
45.7425,0
45.7723,0
45.802,0
45.8318,1
45.8616,0
45.8914,0
45.9212,0
45.9509,2
45.9807,0
46.0105,0
46.0403,0
46.0701,0
46.0998,0
46.1296,0
46.1594,0
46.1892,0
46.219,0
46.2487,0
46.2785,0
46.3083,0
46.3381,0
46.3679,0
46.3976,0
46.4274,0
46.4572,0
46.487,0
46.5168,0
46.5465,0
46.5763,0
46.6061,0
46.6359,0
46.6657,0
46.6954,0
46.7252,0
46.755,0
46.7848,0
46.8146,0
46.8443,0
46.8741,0
46.9039,0
46.9337,0
46.9635,0
46.9932,0
47.023,0
47.0528,0
47.0826,0
47.1124,0
47.1421,0
47.1719,0
47.2017,0
47.2315,0
47.2613,0
47.291,0
47.3208,0
47.3506,0
47.3804,0
47.4102,1
47.4399,0
47.4697,0
47.4995,0
47.5293,0
47.5591,0
47.5888,0
47.6186,0
47.6484,1
47.6782,0
47.708,0
47.7377,0
47.7675,0
47.7973,0
47.8271,1
47.8569,0
47.8866,0
47.9164,0
47.9462,0
47.976,0
48.0058,0
48.0355,0
48.0653,0
48.0951,0
48.1249,0
48.1547,0
48.1844,0
48.2142,0
48.244,0
48.2738,0
48.3036,0
48.3333,0
48.3631,0
48.3929,0
48.4227,0
48.4525,0
48.4822,0
48.512,0
48.5418,0
48.5716,0
48.6014,0
48.6311,0
48.6609,0
48.6907,0
48.7205,0
48.7503,0
48.78,0
48.8098,0
48.8396,0
48.8694,1
48.8992,0
48.9289,0
48.9587,0
48.9885,0
49.0183,0
49.0481,0
49.0778,0
49.1076,0
49.1374,0
49.1672,0
49.197,0
49.2267,0
49.2565,0
49.2863,0
49.3161,0
49.3459,0
49.3756,0
49.4054,0
49.4352,0
49.465,0
49.4948,0
49.5245,0
49.5543,0
49.5841,0
49.6139,0
49.6437,0
49.6734,0
49.7032,0
49.733,0
49.7628,0
49.7926,0
49.8223,0
49.8521,0
49.8819,0
49.9117,0
49.9415,0
49.9712,0
50.001,0
50.0308,0
50.0606,0
50.0904,0
50.1201,0
50.1499,0
50.1797,0
50.2095,0
50.2393,0
50.269,0
50.2988,0
50.3286,0
50.3584,0
50.3882,0
50.4179,1
50.4477,0
50.4775,0
50.5073,0
50.5371,0
50.5668,0
50.5966,0
50.6264,0
50.6562,0
50.686,0
50.7157,0
50.7455,0
50.7753,0
50.8051,0
50.8349,0
50.8646,0
50.8944,0
50.9242,0
50.954,1
50.9838,0
51.0135,1
51.0433,0
51.0731,0
51.1029,0
51.1327,0
51.1624,0
51.1922,0
51.222,0
51.2518,0
51.2816,0
51.3113,0
51.3411,0
51.3709,0
51.4007,0
51.4305,0
51.4602,0
51.49,0
51.5198,0
51.5496,0
51.5794,0
51.6091,0
51.6389,0
51.6687,0
51.6985,0
51.7283,0
51.758,0
51.7878,0
51.8176,0
51.8474,0
51.8772,0
51.9069,0
51.9367,0
51.9665,0
51.9963,0
52.0261,0
52.0558,0
52.0856,0
52.1154,0
52.1452,0
52.175,0
52.2047,0
52.2345,0
52.2643,0
52.2941,0
52.3239,1
52.3536,0
52.3834,0
52.4132,0
52.443,0
52.4728,0
52.5025,0
52.5323,0
52.5621,0
52.5919,1
52.6217,0
52.6514,0
52.6812,0
52.711,0
52.7408,0
52.7706,0
52.8003,0
52.8301,0
52.8599,0
52.8897,0
52.9195,0
52.9492,0
52.979,0
53.0088,0
53.0386,0
53.0684,0
53.0981,0
53.1279,0
53.1577,0
53.1875,0
53.2173,0
53.247,0
53.2768,0
53.3066,0
53.3364,0
53.3662,0
53.3959,1
53.4257,0
53.4555,0
53.4853,0
53.5151,0
53.5448,0
53.5746,0
53.6044,0
53.6342,0
53.664,0
53.6937,0
53.7235,0
53.7533,0
53.7831,0
53.8129,0
53.8426,0
53.8724,0
53.9022,0
53.932,0
53.9618,0
53.9915,0
54.0213,0
54.0511,0
54.0809,0
54.1107,0
54.1404,0
54.1702,0
54.2,0
54.2298,0
54.2596,0
54.2893,0
54.3191,0
54.3489,1
54.3787,0
54.4085,0
54.4382,0
54.468,0
54.4978,1
54.5276,0
54.5574,0
54.5871,0
54.6169,0
54.6467,0
54.6765,0
54.7063,0
54.736,0
54.7658,0
54.7956,0
54.8254,0
54.8552,0
54.8849,0
54.9147,0
54.9445,0
54.9743,0
55.0041,0
55.0338,0
55.0636,0
55.0934,0
55.1232,0
55.153,0
55.1827,0
55.2125,0
55.2423,0
55.2721,0
55.3019,0
55.3316,0
55.3614,0
55.3912,0
55.421,0
55.4508,0
55.4805,0
55.5103,0
55.5401,0
55.5699,0
55.5997,0
55.6294,0
55.6592,0
55.689,0
55.7188,0
55.7486,0
55.7783,0
55.8081,0
55.8379,0
55.8677,0
55.8975,0
55.9272,0
55.957,0
55.9868,0
56.0166,0
56.0464,1
56.0761,0
56.1059,0
56.1357,0
56.1655,0
56.1953,0
56.225,0
56.2548,0
56.2846,0
56.3144,0
56.3442,0
56.3739,0
56.4037,0
56.4335,0
56.4633,0
56.4931,0
56.5228,0
56.5526,0
56.5824,0
56.6122,0
56.642,0
56.6717,0
56.7015,0
56.7313,0
56.7611,0
56.7909,0
56.8206,0
56.8504,0
56.8802,0
56.91,0
56.9398,0
56.9695,0
56.9993,0
57.0291,0
57.0589,0
57.0887,0
57.1184,0
57.1482,0
57.178,0
57.2078,0
57.2376,0
57.2673,0
57.2971,0
57.3269,0
57.3567,0
57.3865,0
57.4162,0
57.446,0
57.4758,0
57.5056,0
57.5354,0
57.5651,0
57.5949,0
57.6247,0
57.6545,0
57.6843,0
57.714,0
57.7438,0
57.7736,0
57.8034,0
57.8332,0
57.8629,0
57.8927,0
57.9225,0
57.9523,0
57.9821,0
58.0118,0
58.0416,0
58.0714,0
58.1012,0
58.131,0
58.1607,0
58.1905,0
58.2203,0
58.2501,0
58.2799,0
58.3096,0
58.3394,0
58.3692,0
58.399,0
58.4288,0
58.4585,0
58.4883,0
58.5181,0
58.5479,0
58.5777,0
58.6074,0
58.6372,0
58.667,0
58.6968,0
58.7266,0
58.7563,0
58.7861,0
58.8159,1
58.8457,0
58.8755,0
58.9052,0
58.935,0
58.9648,0
58.9946,0
59.0244,1
59.0541,0
59.0839,0
59.1137,0
59.1435,0
59.1733,0
59.203,0
59.2328,0
59.2626,0
59.2924,0
59.3222,0
59.3519,0
59.3817,0
59.4115,1
59.4413,0
59.4711,0
59.5008,1
59.5306,0
59.5604,0
59.5902,1
59.62,1
59.6497,0
59.6795,1
59.7093,1
59.7391,0
59.7689,0
59.7986,1
59.8284,0
59.8582,0
59.888,0
59.9178,1
59.9475,0
59.9773,0
60.0071,0
60.0369,0
60.0667,0
60.0964,0
60.1262,0
60.156,0
60.1858,0
60.2156,0
60.2453,0
60.2751,0
60.3049,0
60.3347,0
60.3645,0
60.3942,0
60.424,0
60.4538,0
60.4836,0
60.5134,0
60.5431,0
60.5729,0
60.6027,0
60.6325,0
60.6623,0
60.692,0
60.7218,0
60.7516,0
60.7814,0
60.8112,0
60.8409,0
60.8707,0
60.9005,0
60.9303,0
60.9601,0
60.9898,0
61.0196,0
