Energy 	Counts
0.0004,0
0.03018,0
0.05996,0
0.08974,0
0.11952,0
0.1493,0
0.17908,0
0.20886,0
0.23864,0
0.26842,0
0.2982,0
0.32798,2
0.35776,54
0.38754,169
0.41732,223
0.4471,228
0.47688,238
0.50666,288
0.53644,232
0.56622,254
0.596,221
0.62578,246
0.65556,218
0.68534,187
0.71512,231
0.7449,211
0.77468,219
0.80446,223
0.83424,207
0.86402,197
0.8938,183
0.92358,208
0.95336,200
0.98314,212
1.01292,208
1.0427,174
1.07248,164
1.10226,190
1.13204,191
1.16182,169
1.1916,168
1.22138,174
1.25116,176
1.28094,175
1.31072,171
1.3405,193
1.37028,178
1.40006,166
1.42984,171
1.45962,164
1.4894,125
1.51918,159
1.54896,148
1.57874,143
1.60852,157
1.6383,145
1.66808,149
1.69786,133
1.72764,123
1.75742,139
1.7872,137
1.81698,129
1.84676,132
1.87654,133
1.90632,148
1.9361,140
1.96588,144
1.99566,140
2.02544,159
2.05522,140
2.085,128
2.11478,123
2.14456,104
2.17434,128
2.20412,138
2.2339,132
2.26368,127
2.29346,145
2.32324,128
2.35302,116
2.3828,120
2.41258,141
2.44236,111
2.47214,136
2.50192,151
2.5317,123
2.56148,128
2.59126,117
2.62104,139
2.65082,124
2.6806,134
2.71038,118
2.74016,112
2.76994,121
2.79972,128
2.8295,132
2.85928,105
2.88906,105
2.91884,103
2.94862,122
2.9784,104
3.00818,110
3.03796,118
3.06774,105
3.09752,109
3.1273,99
3.15708,106
3.18686,108
3.21664,115
3.24642,94
3.2762,115
3.30598,102
3.33576,121
3.36554,117
3.39532,86
3.4251,108
3.45488,121
3.48466,102
3.51444,115
3.54422,97
3.574,120
3.60378,99
3.63356,94
3.66334,108
3.69312,92
3.7229,117
3.75268,103
3.78246,106
3.81224,106
3.84202,86
3.8718,94
3.90158,102
3.93136,94
3.96114,113
3.99092,99
4.0207,105
4.05048,108
4.08026,85
4.11004,85
4.13982,101
4.1696,112
4.19938,138
4.22916,89
4.25894,112
4.28872,89
4.3185,85
4.34828,101
4.37806,86
4.40784,99
4.43762,96
4.4674,110
4.49718,97
4.52696,88
4.55674,94
4.58652,95
4.6163,109
4.64608,108
4.67586,86
4.70564,97
4.73542,97
4.7652,85
4.79498,108
4.82476,93
4.85454,107
4.88432,88
4.9141,90
4.94388,106
4.97366,104
5.00344,97
5.03322,118
5.063,104
5.09278,96
5.12256,95
5.15234,106
5.18212,96
5.2119,79
5.24168,104
5.27146,96
5.30124,93
5.33102,84
5.3608,111
5.39058,100
5.42036,88
5.45014,98
5.47992,95
5.5097,86
5.53948,97
5.56926,100
5.59904,108
5.62882,98
5.6586,94
5.68838,90
5.71816,96
5.74794,89
5.77772,89
5.8075,91
5.83728,91
5.86706,106
5.89684,109
5.92662,82
5.9564,85
5.98618,84
6.01596,97
6.04574,106
6.07552,95
6.1053,131
6.13508,151
6.16486,187
6.19464,182
6.22442,223
6.2542,238
6.28398,230
6.31376,229
6.34354,182
6.37332,165
6.4031,132
6.43288,122
6.46266,86
6.49244,89
6.52222,68
6.552,77
6.58178,72
6.61156,74
6.64134,57
6.67112,61
6.7009,64
6.73068,65
6.76046,70
6.79024,80
6.82002,75
6.8498,116
6.87958,160
6.90936,151
6.93914,204
6.96892,199
6.9987,204
7.02848,204
7.05826,143
7.08804,135
7.11782,104
7.1476,92
7.17738,63
7.20716,68
7.23694,73
7.26672,77
7.2965,78
7.32628,93
7.35606,84
7.38584,78
7.41562,93
7.4454,67
7.47518,84
7.50496,59
7.53474,57
7.56452,38
7.5943,58
7.62408,45
7.65386,43
7.68364,48
7.71342,34
7.7432,39
7.77298,51
7.80276,43
7.83254,40
7.86232,52
7.8921,27
7.92188,43
7.95166,46
7.98144,46
8.01122,39
8.041,49
8.07078,49
8.10056,60
8.13034,37
8.16012,47
8.1899,38
8.21968,46
8.24946,38
8.27924,35
8.30902,38
8.3388,36
8.36858,32
8.39836,37
8.42814,26
8.45792,34
8.4877,26
8.51748,33
8.54726,31
8.57704,28
8.60682,21
8.6366,29
8.66638,30
8.69616,24
8.72594,30
8.75572,28
8.7855,21
8.81528,25
8.84506,16
8.87484,21
8.90462,14
8.9344,23
8.96418,20
8.99396,19
9.02374,27
9.05352,25
9.0833,21
9.11308,35
9.14286,25
9.17264,33
9.20242,31
9.2322,26
9.26198,26
9.29176,24
9.32154,12
9.35132,23
9.3811,17
9.41088,24
9.44066,20
9.47044,22
9.50022,13
9.53,27
9.55978,24
9.58956,13
9.61934,33
9.64912,21
9.6789,24
9.70868,24
9.73846,17
9.76824,23
9.79802,15
9.8278,21
9.85758,18
9.88736,19
9.91714,15
9.94692,12
9.9767,11
10.0065,15
10.0363,14
10.066,13
10.0958,17
10.1256,23
10.1554,14
10.1852,20
10.2149,14
10.2447,20
10.2745,14
10.3043,26
10.3341,12
10.3638,21
10.3936,13
10.4234,18
10.4532,21
10.483,17
10.5127,13
10.5425,16
10.5723,20
10.6021,21
10.6319,15
10.6616,18
10.6914,18
10.7212,15
10.751,14
10.7808,14
10.8105,10
10.8403,6
10.8701,17
10.8999,18
10.9297,20
10.9594,20
10.9892,20
11.019,12
11.0488,9
11.0786,15
11.1083,22
11.1381,19
11.1679,8
11.1977,23
11.2275,15
11.2572,14
11.287,18
11.3168,14
11.3466,12
11.3764,14
11.4061,15
11.4359,20
11.4657,13
11.4955,15
11.5253,7
11.555,13
11.5848,16
11.6146,22
11.6444,14
11.6742,11
11.7039,15
11.7337,17
11.7635,14
11.7933,13
11.8231,23
11.8528,13
11.8826,15
11.9124,16
11.9422,19
11.972,22
12.0017,14
12.0315,14
12.0613,13
12.0911,13
12.1209,9
12.1506,10
12.1804,16
12.2102,12
12.24,12
12.2698,10
12.2995,9
12.3293,12
12.3591,13
12.3889,6
12.4187,13
12.4484,6
12.4782,7
12.508,17
12.5378,13
12.5676,15
12.5973,17
12.6271,19
12.6569,25
12.6867,17
12.7165,17
12.7462,11
12.776,11
12.8058,14
12.8356,17
12.8654,6
12.8951,15
12.9249,12
12.9547,10
12.9845,9
13.0143,10
13.044,12
13.0738,11
13.1036,9
13.1334,14
13.1632,9
13.1929,8
13.2227,8
13.2525,5
13.2823,14
13.3121,20
13.3418,8
13.3716,10
13.4014,12
13.4312,11
13.461,12
13.4907,18
13.5205,5
13.5503,16
13.5801,4
13.6099,13
13.6396,14
13.6694,7
13.6992,9
13.729,7
13.7588,10
13.7885,12
13.8183,9
13.8481,9
13.8779,10
13.9077,7
13.9374,6
13.9672,14
13.997,12
14.0268,8
14.0566,14
14.0863,4
14.1161,9
14.1459,13
14.1757,9
14.2055,12
14.2352,11
14.265,6
14.2948,7
14.3246,9
14.3544,10
14.3841,15
14.4139,10
14.4437,11
14.4735,15
14.5033,10
14.533,6
14.5628,13
14.5926,4
14.6224,10
14.6522,8
14.6819,12
14.7117,12
14.7415,9
14.7713,11
14.8011,8
14.8308,12
14.8606,13
14.8904,11
14.9202,10
14.95,12
14.9797,10
15.0095,9
15.0393,8
15.0691,10
15.0989,5
15.1286,7
15.1584,13
15.1882,14
15.218,11
15.2478,9
15.2775,12
15.3073,7
15.3371,8
15.3669,9
15.3967,3
15.4264,8
15.4562,12
15.486,11
15.5158,12
15.5456,10
15.5753,8
15.6051,7
15.6349,7
15.6647,9
15.6945,8
15.7242,9
15.754,14
15.7838,10
15.8136,11
15.8434,16
15.8731,7
15.9029,7
15.9327,7
15.9625,8
15.9923,2
16.022,4
16.0518,6
16.0816,10
16.1114,7
16.1412,9
16.1709,2
16.2007,5
16.2305,14
16.2603,5
16.2901,7
16.3198,3
16.3496,2
16.3794,8
16.4092,6
16.439,6
16.4687,14
16.4985,8
16.5283,7
16.5581,5
16.5879,11
16.6176,3
16.6474,5
16.6772,7
16.707,5
16.7368,13
16.7665,14
16.7963,13
16.8261,12
16.8559,3
16.8857,4
16.9154,7
16.9452,7
16.975,11
17.0048,2
17.0346,7
17.0643,7
17.0941,10
17.1239,6
17.1537,6
17.1835,12
17.2132,3
17.243,11
17.2728,12
17.3026,11
17.3324,12
17.3621,10
17.3919,6
17.4217,11
17.4515,9
17.4813,8
17.511,7
17.5408,15
17.5706,5
17.6004,9
17.6302,6
17.6599,6
17.6897,13
17.7195,17
17.7493,11
17.7791,5
17.8088,5
17.8386,8
17.8684,7
17.8982,6
17.928,13
17.9577,8
17.9875,9
18.0173,10
18.0471,4
18.0769,7
18.1066,7
18.1364,9
18.1662,5
18.196,9
18.2258,5
18.2555,10
18.2853,11
18.3151,6
18.3449,9
18.3747,12
18.4044,9
18.4342,8
18.464,6
18.4938,6
18.5236,5
18.5533,7
18.5831,10
18.6129,7
18.6427,6
18.6725,15
18.7022,5
18.732,9
18.7618,8
18.7916,10
18.8214,3
18.8511,4
18.8809,3
18.9107,6
18.9405,6
18.9703,15
19,4
19.0298,5
19.0596,7
19.0894,10
19.1192,9
19.1489,8
19.1787,7
19.2085,2
19.2383,7
19.2681,8
19.2978,7
19.3276,7
19.3574,6
19.3872,7
19.417,7
19.4467,8
19.4765,5
19.5063,6
19.5361,7
19.5659,7
19.5956,10
19.6254,9
19.6552,11
19.685,9
19.7148,9
19.7445,11
19.7743,3
19.8041,7
19.8339,6
19.8637,5
19.8934,8
19.9232,6
19.953,4
19.9828,9
20.0126,9
20.0423,10
20.0721,7
20.1019,8
20.1317,2
20.1615,8
20.1912,11
20.221,10
20.2508,5
20.2806,4
20.3104,7
20.3401,4
20.3699,10
20.3997,8
20.4295,6
20.4593,6
20.489,5
20.5188,9
20.5486,7
20.5784,6
20.6082,3
20.6379,6
20.6677,6
20.6975,4
20.7273,7
20.7571,8
20.7868,9
20.8166,5
20.8464,7
20.8762,6
20.906,12
20.9357,8
20.9655,3
20.9953,5
21.0251,5
21.0549,8
21.0846,10
21.1144,4
21.1442,4
21.174,7
21.2038,6
21.2335,5
21.2633,5
21.2931,6
21.3229,5
21.3527,4
21.3824,8
21.4122,9
21.442,9
21.4718,7
21.5016,6
21.5313,1
21.5611,7
21.5909,4
21.6207,8
21.6505,8
21.6802,7
21.71,8
21.7398,9
21.7696,4
21.7994,5
21.8291,6
21.8589,7
21.8887,12
21.9185,10
21.9483,10
21.978,9
22.0078,10
22.0376,13
22.0674,10
22.0972,13
22.1269,8
22.1567,6
22.1865,12
22.2163,10
22.2461,12
22.2758,8
22.3056,12
22.3354,2
22.3652,9
22.395,5
22.4247,9
22.4545,12
22.4843,6
22.5141,5
22.5439,10
22.5736,10
22.6034,10
22.6332,9
22.663,6
22.6928,12
22.7225,13
22.7523,11
22.7821,24
22.8119,15
22.8417,25
22.8714,44
22.9012,30
22.931,38
22.9608,65
22.9906,47
23.0203,49
23.0501,41
23.0799,31
23.1097,36
23.1395,26
23.1692,13
23.199,20
23.2288,16
23.2586,11
23.2884,15
23.3181,11
23.3479,11
23.3777,5
23.4075,12
23.4373,5
23.467,5
23.4968,6
23.5266,8
23.5564,8
23.5862,6
23.6159,8
23.6457,5
23.6755,8
23.7053,8
23.7351,12
23.7648,17
23.7946,13
23.8244,18
23.8542,17
23.884,19
23.9137,26
23.9435,26
23.9733,31
24.0031,33
24.0329,37
24.0626,50
24.0924,52
24.1222,53
24.152,47
24.1818,50
24.2115,44
24.2413,42
24.2711,28
24.3009,33
24.3307,24
24.3604,18
24.3902,26
24.42,17
24.4498,16
24.4796,11
24.5093,11
24.5391,10
24.5689,4
24.5987,9
24.6285,5
24.6582,5
24.688,7
24.7178,10
24.7476,7
24.7774,13
24.8071,13
24.8369,19
24.8667,27
24.8965,21
24.9263,51
24.956,39
24.9858,52
25.0156,64
25.0454,77
25.0752,82
25.1049,96
25.1347,91
25.1645,87
25.1943,105
25.2241,113
25.2538,98
25.2836,95
25.3134,95
25.3432,81
25.373,69
25.4027,50
25.4325,40
25.4623,26
25.4921,26
25.5219,11
25.5516,20
25.5814,16
25.6112,17
25.641,11
25.6708,4
25.7005,11
25.7303,2
25.7601,4
25.7899,11
25.8197,4
25.8494,8
25.8792,7
25.909,10
25.9388,8
25.9686,9
25.9983,6
26.0281,6
26.0579,11
26.0877,2
26.1175,3
26.1472,6
26.177,7
26.2068,9
26.2366,5
26.2664,7
26.2961,8
26.3259,4
26.3557,6
26.3855,9
26.4153,7
26.445,9
26.4748,4
26.5046,7
26.5344,9
26.5642,8
26.5939,7
26.6237,3
26.6535,8
26.6833,4
26.7131,5
26.7428,6
26.7726,7
26.8024,7
26.8322,10
26.862,7
26.8917,7
26.9215,5
26.9513,7
26.9811,6
27.0109,5
27.0406,5
27.0704,6
27.1002,13
27.13,16
27.1598,5
27.1895,10
27.2193,20
27.2491,11
27.2789,23
27.3087,19
27.3384,8
27.3682,15
27.398,13
27.4278,9
27.4576,10
27.4873,6
27.5171,11
27.5469,8
27.5767,6
27.6065,4
27.6362,1
27.666,7
27.6958,8
27.7256,5
27.7554,8
27.7851,7
27.8149,10
27.8447,13
27.8745,6
27.9043,8
27.934,8
27.9638,11
27.9936,5
28.0234,4
28.0532,12
28.0829,6
28.1127,7
28.1425,4
28.1723,13
28.2021,6
28.2318,6
28.2616,18
28.2914,12
28.3212,23
28.351,28
28.3807,23
28.4105,19
28.4403,20
28.4701,25
28.4999,28
28.5296,23
28.5594,19
28.5892,18
28.619,13
28.6488,17
28.6785,9
28.7083,8
28.7381,10
28.7679,6
28.7977,12
28.8274,7
28.8572,3
28.887,8
28.9168,8
28.9466,9
28.9763,7
29.0061,7
29.0359,10
29.0657,12
29.0955,7
29.1252,7
29.155,5
29.1848,10
29.2146,6
29.2444,9
29.2741,5
29.3039,6
29.3337,4
29.3635,7
29.3933,4
29.423,2
29.4528,6
29.4826,12
29.5124,7
29.5422,8
29.5719,9
29.6017,5
29.6315,4
29.6613,7
29.6911,5
29.7208,4
29.7506,9
29.7804,6
29.8102,9
29.84,3
29.8697,5
29.8995,7
29.9293,6
29.9591,3
29.9889,8
30.0186,6
30.0484,10
30.0782,3
30.108,9
30.1378,3
30.1675,3
30.1973,2
30.2271,6
30.2569,7
30.2867,7
30.3164,5
30.3462,6
30.376,6
30.4058,9
30.4356,5
30.4653,5
30.4951,3
30.5249,7
30.5547,8
30.5845,6
30.6142,5
30.644,10
30.6738,6
30.7036,14
30.7334,4
30.7631,8
30.7929,8
30.8227,5
30.8525,4
30.8823,7
30.912,5
30.9418,4
30.9716,9
31.0014,5
31.0312,9
31.0609,8
31.0907,4
31.1205,7
31.1503,4
31.1801,4
31.2098,4
31.2396,5
31.2694,3
31.2992,10
31.329,5
31.3587,9
31.3885,9
31.4183,6
31.4481,6
31.4779,6
31.5076,4
31.5374,5
31.5672,9
31.597,8
31.6268,7
31.6565,4
31.6863,6
31.7161,5
31.7459,9
31.7757,4
31.8054,9
31.8352,4
31.865,9
31.8948,3
31.9246,6
31.9543,6
31.9841,9
32.0139,7
32.0437,4
32.0735,4
32.1032,7
32.133,5
32.1628,6
32.1926,4
32.2224,8
32.2521,3
32.2819,7
32.3117,2
32.3415,8
32.3713,8
32.401,5
32.4308,3
32.4606,6
32.4904,7
32.5202,8
32.5499,12
32.5797,11
32.6095,8
32.6393,8
32.6691,5
32.6988,6
32.7286,5
32.7584,4
32.7882,3
32.818,7
32.8477,7
32.8775,7
32.9073,8
32.9371,11
32.9669,7
32.9966,8
33.0264,4
33.0562,6
33.086,10
33.1158,5
33.1455,10
33.1753,8
33.2051,8
33.2349,6
33.2647,5
33.2944,6
33.3242,7
33.354,8
33.3838,5
33.4136,9
33.4433,7
33.4731,6
33.5029,10
33.5327,5
33.5625,9
33.5922,4
33.622,7
33.6518,5
33.6816,9
33.7114,10
33.7411,3
33.7709,14
33.8007,13
33.8305,4
33.8603,7
33.89,7
33.9198,5
33.9496,5
33.9794,5
34.0092,6
34.0389,14
34.0687,3
34.0985,7
34.1283,10
34.1581,8
34.1878,7
34.2176,4
34.2474,7
34.2772,8
34.307,6
34.3367,8
34.3665,15
34.3963,5
34.4261,9
34.4559,7
34.4856,3
34.5154,6
34.5452,6
34.575,8
34.6048,13
34.6345,10
34.6643,8
34.6941,4
34.7239,8
34.7537,6
34.7834,6
34.8132,11
34.843,9
34.8728,5
34.9026,14
34.9323,13
34.9621,6
34.9919,15
35.0217,1
35.0515,7
35.0812,5
35.111,6
35.1408,8
35.1706,5
35.2004,8
35.2301,10
35.2599,5
35.2897,10
35.3195,18
35.3493,10
35.379,10
35.4088,11
35.4386,9
35.4684,9
35.4982,9
35.5279,11
35.5577,12
35.5875,10
35.6173,7
35.6471,10
35.6768,11
35.7066,11
35.7364,7
35.7662,12
35.796,6
35.8257,14
35.8555,10
35.8853,5
35.9151,12
35.9449,10
35.9746,15
36.0044,12
36.0342,9
36.064,7
36.0938,13
36.1235,8
36.1533,10
36.1831,11
36.2129,5
36.2427,11
36.2724,12
36.3022,6
36.332,17
36.3618,12
36.3916,15
36.4213,15
36.4511,10
36.4809,17
36.5107,9
36.5405,16
36.5702,11
36.6,11
36.6298,12
36.6596,11
36.6894,9
36.7191,16
36.7489,12
36.7787,14
36.8085,15
36.8383,18
36.868,11
36.8978,17
36.9276,19
36.9574,8
36.9872,13
37.0169,9
37.0467,16
37.0765,10
37.1063,15
37.1361,14
37.1658,18
37.1956,7
37.2254,17
37.2552,30
37.285,17
37.3147,20
37.3445,19
37.3743,17
37.4041,11
37.4339,18
37.4636,17
37.4934,15
37.5232,19
37.553,18
37.5828,17
37.6125,12
37.6423,19
37.6721,15
37.7019,9
37.7317,20
37.7614,22
37.7912,20
37.821,21
37.8508,21
37.8806,21
37.9103,26
37.9401,20
37.9699,15
37.9997,26
38.0295,24
38.0592,25
38.089,20
38.1188,14
38.1486,25
38.1784,28
38.2081,15
38.2379,28
38.2677,17
38.2975,22
38.3273,23
38.357,25
38.3868,27
38.4166,28
38.4464,27
38.4762,19
38.5059,23
38.5357,22
38.5655,20
38.5953,26
38.6251,17
38.6548,29
38.6846,29
38.7144,36
38.7442,21
38.774,27
38.8037,26
38.8335,21
38.8633,19
38.8931,19
38.9229,18
38.9526,26
38.9824,20
39.0122,20
39.042,24
39.0718,24
39.1015,22
39.1313,22
39.1611,22
39.1909,27
39.2207,22
39.2504,21
39.2802,26
39.31,19
39.3398,30
39.3696,26
39.3993,24
39.4291,21
39.4589,19
39.4887,25
39.5185,26
39.5482,27
39.578,31
39.6078,23
39.6376,20
39.6674,36
39.6971,29
39.7269,24
39.7567,23
39.7865,26
39.8163,29
39.846,26
39.8758,24
39.9056,35
39.9354,25
39.9652,32
39.9949,25
40.0247,24
40.0545,23
40.0843,42
40.1141,30
40.1438,24
40.1736,22
40.2034,22
40.2332,25
40.263,17
40.2927,24
40.3225,31
40.3523,24
40.3821,27
40.4119,21
40.4416,30
40.4714,28
40.5012,31
40.531,21
40.5608,26
40.5905,30
40.6203,21
40.6501,25
40.6799,28
40.7097,34
40.7394,23
40.7692,26
40.799,28
40.8288,26
40.8586,41
40.8883,27
40.9181,29
40.9479,27
40.9777,28
41.0075,30
41.0372,36
41.067,43
41.0968,27
41.1266,35
41.1564,31
41.1861,24
41.2159,34
41.2457,32
41.2755,33
41.3053,30
41.335,31
41.3648,32
41.3946,46
41.4244,26
41.4542,25
41.4839,30
41.5137,38
41.5435,34
41.5733,44
41.6031,30
41.6328,39
41.6626,39
41.6924,31
41.7222,38
41.752,34
41.7817,48
41.8115,28
41.8413,30
41.8711,39
41.9009,32
41.9306,22
41.9604,42
41.9902,36
42.02,36
42.0498,34
42.0795,36
42.1093,36
42.1391,44
42.1689,37
42.1987,45
42.2284,48
42.2582,37
42.288,43
42.3178,44
42.3476,44
42.3773,42
42.4071,39
42.4369,34
42.4667,32
42.4965,39
42.5262,34
42.556,39
42.5858,40
42.6156,41
42.6454,33
42.6751,35
42.7049,39
42.7347,43
42.7645,41
42.7943,39
42.824,59
42.8538,63
42.8836,47
42.9134,29
42.9432,41
42.9729,35
43.0027,52
43.0325,52
43.0623,45
43.0921,42
43.1218,44
43.1516,46
43.1814,51
43.2112,66
43.241,60
43.2707,72
43.3005,69
43.3303,90
43.3601,107
43.3899,138
43.4196,166
43.4494,231
43.4792,290
43.509,362
43.5388,467
43.5685,533
43.5983,671
43.6281,755
43.6579,827
43.6877,907
43.7174,921
43.7472,916
43.777,945
43.8068,854
43.8366,829
43.8663,722
43.8961,625
43.9259,508
43.9557,411
43.9855,376
44.0152,271
44.045,240
44.0748,230
44.1046,239
44.1344,271
44.1641,326
44.1939,390
44.2237,502
44.2535,598
44.2833,810
44.313,991
44.3428,1080
44.3726,1272
44.4024,1516
44.4322,1559
44.4619,1561
44.4917,1593
44.5215,1524
44.5513,1450
44.5811,1344
44.6108,1113
44.6406,1076
44.6704,786
44.7002,655
44.73,509
44.7597,342
44.7895,285
44.8193,181
44.8491,133
44.8789,97
44.9086,64
44.9384,57
44.9682,38
44.998,39
45.0278,17
45.0575,22
45.0873,20
45.1171,20
45.1469,13
45.1767,17
45.2064,9
45.2362,10
45.266,13
45.2958,13
45.3256,10
45.3553,10
45.3851,11
45.4149,11
45.4447,10
45.4745,10
45.5042,10
45.534,11
45.5638,5
45.5936,11
45.6234,9
45.6531,13
45.6829,9
45.7127,12
45.7425,14
45.7723,16
45.802,4
45.8318,13
45.8616,11
45.8914,11
45.9212,9
45.9509,10
45.9807,7
46.0105,9
46.0403,8
46.0701,5
46.0998,14
46.1296,17
46.1594,12
46.1892,10
46.219,6
46.2487,9
46.2785,11
46.3083,11
46.3381,12
46.3679,9
46.3976,5
46.4274,10
46.4572,6
46.487,5
46.5168,6
46.5465,6
46.5763,11
46.6061,6
46.6359,11
46.6657,10
46.6954,12
46.7252,11
46.755,11
46.7848,12
46.8146,8
46.8443,7
46.8741,9
46.9039,4
46.9337,8
46.9635,12
46.9932,9
47.023,23
47.0528,8
47.0826,10
47.1124,9
47.1421,11
47.1719,17
47.2017,9
47.2315,14
47.2613,6
47.291,8
47.3208,12
47.3506,7
47.3804,11
47.4102,8
47.4399,13
47.4697,11
47.4995,14
47.5293,16
47.5591,8
47.5888,18
47.6186,9
47.6484,8
47.6782,11
47.708,7
47.7377,12
47.7675,8
47.7973,9
47.8271,15
47.8569,5
47.8866,14
47.9164,12
47.9462,13
47.976,12
48.0058,9
48.0355,6
48.0653,13
48.0951,12
48.1249,14
48.1547,14
48.1844,14
48.2142,6
48.244,16
48.2738,12
48.3036,15
48.3333,12
48.3631,20
48.3929,18
48.4227,15
48.4525,16
48.4822,9
48.512,18
48.5418,17
48.5716,10
48.6014,16
48.6311,13
48.6609,18
48.6907,11
48.7205,22
48.7503,18
48.78,10
48.8098,25
48.8396,22
48.8694,15
48.8992,13
48.9289,15
48.9587,22
48.9885,21
49.0183,19
49.0481,17
49.0778,18
49.1076,16
49.1374,19
49.1672,17
49.197,19
49.2267,29
49.2565,7
49.2863,17
49.3161,25
49.3459,10
49.3756,18
49.4054,20
49.4352,22
49.465,11
49.4948,26
49.5245,20
49.5543,17
49.5841,25
49.6139,16
49.6437,15
49.6734,21
49.7032,24
49.733,24
49.7628,28
49.7926,26
49.8223,25
49.8521,29
49.8819,31
49.9117,46
49.9415,52
49.9712,74
50.001,83
50.0308,99
50.0606,132
50.0904,162
50.1201,153
50.1499,240
50.1797,233
50.2095,247
50.2393,292
50.269,338
50.2988,352
50.3286,303
50.3584,363
50.3882,304
50.4179,315
50.4477,323
50.4775,257
50.5073,205
50.5371,184
50.5668,149
50.5966,124
50.6264,81
50.6562,90
50.686,67
50.7157,39
50.7455,45
50.7753,36
50.8051,28
50.8349,25
50.8646,12
50.8944,13
50.9242,10
50.954,14
50.9838,15
51.0135,7
51.0433,15
51.0731,13
51.1029,3
51.1327,9
51.1624,6
51.1922,5
51.222,14
51.2518,18
51.2816,9
51.3113,11
51.3411,16
51.3709,15
51.4007,22
51.4305,22
51.4602,38
51.49,51
51.5198,61
51.5496,65
51.5794,66
51.6091,70
51.6389,93
51.6687,100
51.6985,80
51.7283,85
51.758,65
51.7878,88
51.8176,82
51.8474,76
51.8772,55
51.9069,51
51.9367,32
51.9665,25
51.9963,31
52.0261,29
52.0558,14
52.0856,15
52.1154,12
52.1452,11
52.175,10
52.2047,5
52.2345,5
52.2643,6
52.2941,3
52.3239,5
52.3536,0
52.3834,3
52.4132,2
52.443,3
52.4728,2
52.5025,1
52.5323,1
52.5621,1
52.5919,2
52.6217,0
52.6514,2
52.6812,0
52.711,2
52.7408,2
52.7706,1
52.8003,0
52.8301,1
52.8599,3
52.8897,1
52.9195,0
52.9492,1
52.979,2
53.0088,2
53.0386,0
53.0684,2
53.0981,1
53.1279,1
53.1577,2
53.1875,0
53.2173,1
53.247,1
53.2768,3
53.3066,1
53.3364,0
53.3662,0
53.3959,2
53.4257,1
53.4555,1
53.4853,0
53.5151,1
53.5448,1
53.5746,0
53.6044,0
53.6342,1
53.664,1
53.6937,0
53.7235,1
53.7533,0
53.7831,1
53.8129,1
53.8426,0
53.8724,0
53.9022,2
53.932,1
53.9618,0
53.9915,1
54.0213,0
54.0511,0
54.0809,1
54.1107,2
54.1404,0
54.1702,3
54.2,0
54.2298,0
54.2596,0
54.2893,1
54.3191,1
54.3489,1
54.3787,0
54.4085,2
54.4382,0
54.468,1
54.4978,0
54.5276,0
54.5574,1
54.5871,2
54.6169,0
54.6467,1
54.6765,0
54.7063,0
54.736,4
54.7658,0
54.7956,1
54.8254,2
54.8552,1
54.8849,1
54.9147,0
54.9445,0
54.9743,1
55.0041,2
55.0338,0
55.0636,0
55.0934,0
55.1232,1
55.153,0
55.1827,1
55.2125,0
55.2423,0
55.2721,0
55.3019,1
55.3316,1
55.3614,2
55.3912,0
55.421,2
55.4508,0
55.4805,1
55.5103,0
55.5401,0
55.5699,2
55.5997,0
55.6294,0
55.6592,2
55.689,0
55.7188,1
55.7486,1
55.7783,0
55.8081,0
55.8379,0
55.8677,1
55.8975,0
55.9272,0
55.957,2
55.9868,2
56.0166,0
56.0464,0
56.0761,0
56.1059,0
56.1357,0
56.1655,0
56.1953,0
56.225,0
56.2548,0
56.2846,1
56.3144,3
56.3442,0
56.3739,0
56.4037,0
56.4335,0
56.4633,2
56.4931,2
56.5228,0
56.5526,0
56.5824,0
56.6122,0
56.642,1
56.6717,0
56.7015,0
56.7313,0
56.7611,0
56.7909,1
56.8206,0
56.8504,0
56.8802,0
56.91,1
56.9398,0
56.9695,1
56.9993,1
57.0291,1
57.0589,1
57.0887,0
57.1184,1
57.1482,1
57.178,1
57.2078,1
57.2376,0
57.2673,0
57.2971,0
57.3269,1
57.3567,1
57.3865,0
57.4162,1
57.446,0
57.4758,1
57.5056,0
57.5354,1
57.5651,0
57.5949,0
57.6247,0
57.6545,0
57.6843,2
57.714,1
57.7438,0
57.7736,0
57.8034,1
57.8332,0
57.8629,3
57.8927,1
57.9225,1
57.9523,1
57.9821,0
58.0118,1
58.0416,0
58.0714,0
58.1012,0
58.131,0
58.1607,0
58.1905,1
58.2203,0
58.2501,0
58.2799,0
58.3096,0
58.3394,0
58.3692,1
58.399,1
58.4288,2
58.4585,1
58.4883,1
58.5181,0
58.5479,0
58.5777,0
58.6074,2
58.6372,0
58.667,0
58.6968,0
58.7266,0
58.7563,1
58.7861,0
58.8159,2
58.8457,0
58.8755,1
58.9052,0
58.935,1
58.9648,1
58.9946,1
59.0244,1
59.0541,0
59.0839,1
59.1137,1
59.1435,1
59.1733,4
59.203,6
59.2328,3
59.2626,7
59.2924,13
59.3222,5
59.3519,14
59.3817,15
59.4115,12
59.4413,15
59.4711,23
59.5008,11
59.5306,21
59.5604,25
59.5902,21
59.62,24
59.6497,12
59.6795,22
59.7093,13
59.7391,16
59.7689,4
59.7986,4
59.8284,6
59.8582,6
59.888,6
59.9178,2
59.9475,0
59.9773,0
60.0071,0
60.0369,0
60.0667,0
60.0964,0
60.1262,0
60.156,0
60.1858,0
60.2156,0
60.2453,0
60.2751,0
60.3049,0
60.3347,0
60.3645,0
60.3942,0
60.424,0
60.4538,1
60.4836,0
60.5134,0
60.5431,0
60.5729,0
60.6027,0
60.6325,0
60.6623,0
60.692,0
60.7218,0
60.7516,0
60.7814,0
60.8112,0
60.8409,0
60.8707,0
60.9005,0
60.9303,1
60.9601,0
60.9898,0
61.0196,0
