Energy 	Counts
-483.118,0
-482.876,0
-482.634,0
-482.393,0
-482.151,0
-481.909,0
-481.667,0
-481.425,0
-481.183,0
-480.942,1
-480.7,0
-480.458,0
-480.216,0
-479.974,0
-479.733,1
-479.491,3078
-479.249,34498
-479.007,58827
-478.765,1855891
-478.523,1
-478.282,2
-478.04,2593344
-477.798,1336
-477.556,22
-477.314,16
-477.073,17
-476.831,27
-476.589,16
-476.347,12
-476.105,21
-475.863,23
-475.622,29
-475.38,26
-475.138,25
-474.896,19
-474.654,24
-474.413,26
-474.171,23
-473.929,25
-473.687,21
-473.445,18
-473.204,34
-472.962,26
-472.72,32
-472.478,29
-472.236,25
-471.994,27
-471.753,25
-471.511,34
-471.269,30
-471.027,32
-470.785,32
-470.544,31
-470.302,25
-470.06,27
-469.818,20
-469.576,25
-469.334,29
-469.093,26
-468.851,27
-468.609,25
-468.367,25
-468.125,18
-467.884,30
-467.642,21
-467.4,31
-467.158,29
-466.916,28
-466.674,36
-466.433,24
-466.191,30
-465.949,27
-465.707,23
-465.465,29
-465.224,26
-464.982,32
-464.74,33
-464.498,28
-464.256,19
-464.014,29
-463.773,18
-463.531,33
-463.289,26
-463.047,25
-462.805,28
-462.564,28
-462.322,31
-462.08,33
-461.838,23
-461.596,20
-461.354,24
-461.113,33
-460.871,28
-460.629,24
-460.387,21
-460.145,32
-459.904,33
-459.662,17
-459.42,27
-459.178,32
-458.936,25
-458.694,26
-458.453,31
-458.211,19
-457.969,34
-457.727,27
-457.485,42
-457.244,24
-457.002,25
-456.76,28
-456.518,28
-456.276,32
-456.035,30
-455.793,29
-455.551,19
-455.309,32
-455.067,27
-454.825,31
-454.584,19
-454.342,26
-454.1,21
-453.858,23
-453.616,16
-453.375,30
-453.133,20
-452.891,28
-452.649,27
-452.407,20
-452.165,21
-451.924,28
-451.682,27
-451.44,22
-451.198,28
-450.956,29
-450.715,26
-450.473,26
-450.231,23
-449.989,23
-449.747,25
-449.505,33
-449.264,33
-449.022,22
-448.78,22
-448.538,24
-448.296,31
-448.055,30
-447.813,23
-447.571,27
-447.329,31
-447.087,22
-446.845,24
-446.604,20
-446.362,27
-446.12,21
-445.878,21
-445.636,25
-445.395,30
-445.153,29
-444.911,22
-444.669,33
-444.427,32
-444.185,24
-443.944,22
-443.702,19
-443.46,21
-443.218,28
-442.976,20
-442.735,20
-442.493,27
-442.251,36
-442.009,27
-441.767,34
-441.525,29
-441.284,26
-441.042,37
-440.8,34
-440.558,29
-440.316,23
-440.075,28
-439.833,26
-439.591,18
-439.349,24
-439.107,23
-438.866,27
-438.624,25
-438.382,29
-438.14,30
-437.898,33
-437.656,19
-437.415,26
-437.173,27
-436.931,32
-436.689,20
-436.447,20
-436.206,30
-435.964,25
-435.722,16
-435.48,20
-435.238,35
-434.996,26
-434.755,23
-434.513,33
-434.271,28
-434.029,19
-433.787,26
-433.546,26
-433.304,29
-433.062,31
-432.82,21
-432.578,17
-432.336,17
-432.095,22
-431.853,19
-431.611,33
-431.369,20
-431.127,30
-430.886,31
-430.644,17
-430.402,31
-430.16,27
-429.918,13
-429.676,26
-429.435,26
-429.193,22
-428.951,23
-428.709,20
-428.467,27
-428.226,23
-427.984,22
-427.742,21
-427.5,27
-427.258,23
-427.016,30
-426.775,23
-426.533,29
-426.291,25
-426.049,17
-425.807,23
-425.566,27
-425.324,33
-425.082,23
-424.84,18
-424.598,21
-424.356,29
-424.115,25
-423.873,28
-423.631,16
-423.389,25
-423.147,23
-422.906,29
-422.664,32
-422.422,28
-422.18,35
-421.938,30
-421.697,27
-421.455,35
-421.213,28
-420.971,28
-420.729,21
-420.487,24
-420.246,25
-420.004,27
-419.762,29
-419.52,24
-419.278,36
-419.036,31
-418.795,31
-418.553,36
-418.311,24
-418.069,13
-417.827,22
-417.586,24
-417.344,24
-417.102,14
-416.86,29
-416.618,29
-416.377,30
-416.135,26
-415.893,27
-415.651,23
-415.409,17
-415.167,23
-414.926,38
-414.684,25
-414.442,21
-414.2,21
-413.958,23
-413.717,28
-413.475,29
-413.233,22
-412.991,31
-412.749,25
-412.507,32
-412.266,27
-412.024,20
-411.782,17
-411.54,19
-411.298,14
-411.057,34
-410.815,30
-410.573,21
-410.331,27
-410.089,26
-409.847,25
-409.606,16
-409.364,28
-409.122,9
-408.88,20
-408.638,27
-408.397,23
-408.155,19
-407.913,25
-407.671,25
-407.429,28
-407.187,25
-406.946,30
-406.704,33
-406.462,21
-406.22,29
-405.978,27
-405.737,19
-405.495,20
-405.253,26
-405.011,27
-404.769,22
-404.527,28
-404.286,25
-404.044,26
-403.802,25
-403.56,37
-403.318,29
-403.077,24
-402.835,22
-402.593,36
-402.351,30
-402.109,34
-401.867,28
-401.626,27
-401.384,28
-401.142,21
-400.9,26
-400.658,30
-400.417,26
-400.175,33
-399.933,17
-399.691,26
-399.449,19
-399.208,18
-398.966,27
-398.724,23
-398.482,19
-398.24,29
-397.998,25
-397.757,27
-397.515,14
-397.273,29
-397.031,34
-396.789,25
-396.548,18
-396.306,21
-396.064,26
-395.822,21
-395.58,21
-395.338,29
-395.097,32
-394.855,33
-394.613,32
-394.371,30
-394.129,28
-393.888,24
-393.646,30
-393.404,23
-393.162,23
-392.92,24
-392.678,29
-392.437,28
-392.195,22
-391.953,22
-391.711,20
-391.469,18
-391.228,24
-390.986,26
-390.744,18
-390.502,23
-390.26,29
-390.018,24
-389.777,28
-389.535,30
-389.293,27
-389.051,26
-388.809,32
-388.568,29
-388.326,26
-388.084,30
-387.842,24
-387.6,31
-387.358,14
-387.117,28
-386.875,30
-386.633,22
-386.391,18
-386.149,21
-385.908,19
-385.666,27
-385.424,23
-385.182,20
-384.94,27
-384.698,33
-384.457,26
-384.215,28
-383.973,25
-383.731,22
-383.489,21
-383.248,24
-383.006,19
-382.764,22
-382.522,23
-382.28,19
-382.039,26
-381.797,31
-381.555,34
-381.313,22
-381.071,24
-380.829,35
-380.588,24
-380.346,13
-380.104,27
-379.862,26
-379.62,24
-379.379,27
-379.137,25
-378.895,27
-378.653,25
-378.411,31
-378.169,27
-377.928,24
-377.686,32
-377.444,30
-377.202,31
-376.96,30
-376.719,21
-376.477,23
-376.235,17
-375.993,26
-375.751,25
-375.509,21
-375.268,32
-375.026,10
-374.784,25
-374.542,16
-374.3,22
-374.059,30
-373.817,23
-373.575,27
-373.333,28
-373.091,33
-372.849,27
-372.608,28
-372.366,20
-372.124,25
-371.882,34
-371.64,20
-371.399,25
-371.157,20
-370.915,15
-370.673,31
-370.431,28
-370.189,34
-369.948,21
-369.706,25
-369.464,34
-369.222,25
-368.98,26
-368.739,17
-368.497,29
-368.255,20
-368.013,26
-367.771,22
-367.529,29
-367.288,32
-367.046,29
-366.804,22
-366.562,31
-366.32,26
-366.079,32
-365.837,23
-365.595,28
-365.353,16
-365.111,27
-364.87,25
-364.628,22
-364.386,24
-364.144,34
-363.902,25
-363.66,19
-363.419,36
-363.177,26
-362.935,38
-362.693,18
-362.451,24
-362.21,30
-361.968,30
-361.726,24
-361.484,23
-361.242,23
-361,25
-360.759,25
-360.517,28
-360.275,27
-360.033,26
-359.791,24
-359.55,19
-359.308,24
-359.066,25
-358.824,29
-358.582,34
-358.34,28
-358.099,26
-357.857,25
-357.615,27
-357.373,25
-357.131,26
-356.89,22
-356.648,23
-356.406,24
-356.164,21
-355.922,27
-355.68,25
-355.439,21
-355.197,27
-354.955,17
-354.713,25
-354.471,23
-354.23,16
-353.988,35
-353.746,26
-353.504,27
-353.262,24
-353.02,22
-352.779,27
-352.537,24
-352.295,21
-352.053,26
-351.811,30
-351.57,21
-351.328,19
-351.086,32
-350.844,30
-350.602,20
-350.36,22
-350.119,28
-349.877,27
-349.635,30
-349.393,25
-349.151,21
-348.91,20
-348.668,27
-348.426,19
-348.184,25
-347.942,20
-347.701,30
-347.459,26
-347.217,30
-346.975,25
-346.733,27
-346.491,33
-346.25,23
-346.008,20
-345.766,25
-345.524,34
-345.282,24
-345.04,17
-344.799,22
-344.557,22
-344.315,23
-344.073,32
-343.831,28
-343.59,27
-343.348,25
-343.106,33
-342.864,29
-342.622,18
-342.381,29
-342.139,25
-341.897,21
-341.655,28
-341.413,22
-341.171,31
-340.93,27
-340.688,17
-340.446,22
-340.204,24
-339.962,21
-339.721,27
-339.479,25
-339.237,27
-338.995,27
-338.753,23
-338.511,31
-338.27,36
-338.028,27
-337.786,17
-337.544,28
-337.302,31
-337.061,24
-336.819,27
-336.577,17
-336.335,19
-336.093,22
-335.851,21
-335.61,25
-335.368,19
-335.126,27
-334.884,26
-334.642,26
-334.401,40
-334.159,22
-333.917,25
-333.675,28
-333.433,25
-333.191,18
-332.95,29
-332.708,20
-332.466,33
-332.224,22
-331.982,32
-331.741,27
-331.499,25
-331.257,25
-331.015,21
-330.773,24
-330.531,25
-330.29,31
-330.048,28
-329.806,24
-329.564,30
-329.322,20
-329.081,18
-328.839,16
-328.597,23
-328.355,26
-328.113,34
-327.871,29
-327.63,18
-327.388,21
-327.146,20
-326.904,25
-326.662,27
-326.421,26
-326.179,28
-325.937,26
-325.695,21
-325.453,21
-325.212,30
-324.97,18
-324.728,22
-324.486,21
-324.244,26
-324.002,28
-323.761,27
-323.519,27
-323.277,28
-323.035,30
-322.793,32
-322.552,21
-322.31,35
-322.068,26
-321.826,26
-321.584,21
-321.342,21
-321.101,18
-320.859,22
-320.617,17
-320.375,26
-320.133,23
-319.892,24
-319.65,20
-319.408,27
-319.166,26
-318.924,21
-318.682,23
-318.441,26
-318.199,28
-317.957,31
-317.715,25
-317.473,17
-317.232,23
-316.99,31
-316.748,18
-316.506,27
-316.264,23
-316.022,25
-315.781,27
-315.539,21
-315.297,31
-315.055,25
-314.813,29
-314.572,23
-314.33,27
-314.088,23
-313.846,22
-313.604,20
-313.362,25
-313.121,30
-312.879,25
-312.637,32
-312.395,24
-312.153,21
-311.912,29
-311.67,23
-311.428,27
-311.186,27
-310.944,26
-310.702,33
-310.461,22
-310.219,22
-309.977,29
-309.735,24
-309.493,27
-309.252,17
-309.01,25
-308.768,27
-308.526,24
-308.284,20
-308.043,25
-307.801,24
-307.559,21
-307.317,26
-307.075,27
-306.833,23
-306.592,25
-306.35,33
-306.108,13
-305.866,29
-305.624,24
-305.383,27
-305.141,29
-304.899,22
-304.657,27
-304.415,24
-304.173,27
-303.932,21
-303.69,22
-303.448,20
-303.206,26
-302.964,13
-302.723,21
-302.481,23
-302.239,27
-301.997,22
-301.755,15
-301.513,19
-301.272,24
-301.03,27
-300.788,28
-300.546,23
-300.304,15
-300.063,30
-299.821,23
-299.579,27
-299.337,16
-299.095,28
-298.853,27
-298.612,28
-298.37,24
-298.128,28
-297.886,25
-297.644,22
-297.403,30
-297.161,24
-296.919,29
-296.677,18
-296.435,38
-296.193,24
-295.952,23
-295.71,29
-295.468,20
-295.226,24
-294.984,23
-294.743,22
-294.501,27
-294.259,20
-294.017,16
-293.775,31
-293.533,21
-293.292,22
-293.05,22
-292.808,34
-292.566,22
-292.324,16
-292.083,25
-291.841,22
-291.599,35
-291.357,26
-291.115,28
-290.874,20
-290.632,32
-290.39,26
-290.148,25
-289.906,23
-289.664,26
-289.423,28
-289.181,18
-288.939,34
-288.697,25
-288.455,19
-288.214,25
-287.972,37
-287.73,31
-287.488,31
-287.246,31
-287.004,27
-286.763,30
-286.521,19
-286.279,21
-286.037,25
-285.795,33
-285.554,19
-285.312,27
-285.07,27
-284.828,31
-284.586,15
-284.344,21
-284.103,27
-283.861,28
-283.619,27
-283.377,23
-283.135,30
-282.894,29
-282.652,21
-282.41,33
-282.168,34
-281.926,20
-281.684,26
-281.443,25
-281.201,25
-280.959,26
-280.717,33
-280.475,30
-280.234,21
-279.992,23
-279.75,24
-279.508,31
-279.266,22
-279.024,21
-278.783,30
-278.541,24
-278.299,27
-278.057,18
-277.815,23
-277.574,20
-277.332,30
-277.09,32
-276.848,31
-276.606,26
-276.364,26
-276.123,32
-275.881,28
-275.639,31
-275.397,25
-275.155,20
-274.914,24
-274.672,29
-274.43,25
-274.188,23
-273.946,34
-273.704,29
-273.463,20
-273.221,16
-272.979,25
-272.737,26
-272.495,28
-272.254,19
-272.012,22
-271.77,23
-271.528,27
-271.286,29
-271.044,23
-270.803,23
-270.561,23
-270.319,24
-270.077,18
-269.835,29
-269.594,24
-269.352,23
-269.11,22
-268.868,22
-268.626,27
-268.385,18
-268.143,23
-267.901,28
-267.659,27
-267.417,18
-267.175,16
-266.934,27
-266.692,28
-266.45,36
-266.208,26
-265.966,23
-265.725,31
-265.483,18
-265.241,21
-264.999,21
-264.757,36
-264.515,24
-264.274,21
-264.032,21
-263.79,26
-263.548,19
-263.306,20
-263.065,24
-262.823,30
-262.581,17
-262.339,21
-262.097,31
-261.855,27
-261.614,18
-261.372,23
-261.13,23
-260.888,26
-260.646,25
-260.405,27
-260.163,23
-259.921,20
-259.679,22
-259.437,20
-259.195,24
-258.954,26
-258.712,17
-258.47,25
-258.228,36
-257.986,26
-257.745,30
-257.503,26
-257.261,22
-257.019,24
-256.777,22
-256.535,27
-256.294,27
-256.052,36
-255.81,16
-255.568,35
-255.326,25
-255.085,26
-254.843,29
-254.601,25
-254.359,26
-254.117,21
-253.876,31
-253.634,31
-253.392,27
-253.15,27
-252.908,23
-252.666,24
-252.425,22
-252.183,22
-251.941,22
-251.699,23
-251.457,28
-251.216,29
-250.974,15
-250.732,28
-250.49,14
-250.248,22
-250.006,24
-249.765,31
-249.523,30
-249.281,27
-249.039,15
-248.797,35
-248.556,32
-248.314,23
-248.072,19
-247.83,21
-247.588,21
-247.346,18
-247.105,23
-246.863,19
-246.621,21
-246.379,29
-246.137,21
-245.896,18
-245.654,22
-245.412,25
-245.17,23
-244.928,18
-244.686,23
-244.445,29
-244.203,27
-243.961,27
-243.719,43
-243.477,18
-243.236,28
-242.994,30
-242.752,30
-242.51,31
-242.268,32
-242.026,22
-241.785,28
-241.543,22
-241.301,24
-241.059,30
-240.817,23
-240.576,19
-240.334,21
-240.092,24
-239.85,26
-239.608,24
-239.366,26
-239.125,31
-238.883,26
-238.641,25
-238.399,25
-238.157,28
-237.916,27
-237.674,23
-237.432,27
-237.19,22
-236.948,20
-236.706,25
-236.465,18
-236.223,26
-235.981,28
-235.739,26
-235.497,19
-235.256,19
-235.014,28
-234.772,31
-234.53,30
-234.288,31
-234.047,25
-233.805,19
-233.563,32
-233.321,29
-233.079,25
-232.837,17
-232.596,18
-232.354,25
-232.112,28
-231.87,17
-231.628,27
-231.387,22
-231.145,19
-230.903,22
-230.661,19
-230.419,30
-230.177,25
-229.936,27
-229.694,28
-229.452,25
-229.21,34
-228.968,30
-228.727,24
-228.485,23
-228.243,23
-228.001,22
-227.759,20
-227.517,20
-227.276,26
-227.034,27
-226.792,22
-226.55,19
-226.308,38
-226.067,23
-225.825,28
-225.583,26
-225.341,23
-225.099,23
-224.857,22
-224.616,30
-224.374,30
-224.132,24
-223.89,19
-223.648,14
-223.407,23
-223.165,26
-222.923,21
-222.681,23
-222.439,22
-222.197,17
-221.956,25
-221.714,20
-221.472,31
-221.23,24
-220.988,21
-220.747,36
-220.505,22
-220.263,24
-220.021,21
-219.779,22
-219.537,21
-219.296,25
-219.054,26
-218.812,32
-218.57,26
-218.328,33
-218.087,21
-217.845,29
-217.603,23
-217.361,20
-217.119,20
-216.878,20
-216.636,22
-216.394,29
-216.152,26
-215.91,22
-215.668,21
-215.427,29
-215.185,33
-214.943,18
-214.701,26
-214.459,24
-214.218,22
-213.976,20
-213.734,28
-213.492,28
-213.25,18
-213.008,24
-212.767,23
-212.525,16
-212.283,19
-212.041,18
-211.799,19
-211.558,26
-211.316,22
-211.074,30
-210.832,16
-210.59,23
-210.348,25
-210.107,19
-209.865,32
-209.623,25
-209.381,23
-209.139,20
-208.898,18
-208.656,23
-208.414,31
-208.172,24
-207.93,32
-207.688,25
-207.447,31
-207.205,25
-206.963,29
-206.721,30
-206.479,19
-206.238,14
-205.996,19
-205.754,24
-205.512,31
-205.27,29
-205.028,29
-204.787,32
-204.545,29
-204.303,33
-204.061,25
-203.819,23
-203.578,27
-203.336,27
-203.094,29
-202.852,16
-202.61,25
-202.368,19
-202.127,23
-201.885,28
-201.643,24
-201.401,36
-201.159,17
-200.918,31
-200.676,28
-200.434,24
-200.192,17
-199.95,24
-199.708,21
-199.467,28
-199.225,33
-198.983,23
-198.741,29
-198.499,33
-198.258,25
-198.016,30
-197.774,27
-197.532,20
-197.29,23
-197.049,25
-196.807,20
-196.565,35
-196.323,11
-196.081,17
-195.839,22
-195.598,21
-195.356,17
-195.114,25
-194.872,25
-194.63,16
-194.389,37
-194.147,24
-193.905,18
-193.663,29
-193.421,29
-193.179,15
-192.938,18
-192.696,24
-192.454,17
-192.212,33
-191.97,21
-191.729,33
-191.487,27
-191.245,18
-191.003,32
-190.761,12
-190.519,26
-190.278,26
-190.036,27
-189.794,27
-189.552,22
-189.31,33
-189.069,23
-188.827,25
-188.585,17
-188.343,40
-188.101,34
-187.859,31
-187.618,21
-187.376,23
-187.134,17
-186.892,26
-186.65,27
-186.409,32
-186.167,29
-185.925,14
-185.683,20
-185.441,25
-185.199,27
-184.958,30
-184.716,26
-184.474,31
-184.232,31
-183.99,13
-183.749,25
-183.507,21
-183.265,18
-183.023,31
-182.781,30
-182.539,21
-182.298,31
-182.056,20
-181.814,29
-181.572,20
-181.33,25
-181.089,13
-180.847,24
-180.605,25
-180.363,32
-180.121,29
-179.88,25
-179.638,26
-179.396,29
-179.154,19
-178.912,24
-178.67,31
-178.429,23
-178.187,30
-177.945,29
-177.703,24
-177.461,27
-177.22,31
-176.978,33
-176.736,25
-176.494,28
-176.252,43
-176.01,41
-175.769,28
-175.527,34
-175.285,22
-175.043,26
-174.801,26
-174.56,15
-174.318,25
-174.076,23
-173.834,28
-173.592,30
-173.35,18
-173.109,22
-172.867,20
-172.625,20
-172.383,19
-172.141,25
-171.9,28
-171.658,21
-171.416,24
-171.174,24
-170.932,24
-170.69,23
-170.449,27
-170.207,30
-169.965,19
-169.723,22
-169.481,24
-169.24,26
-168.998,26
-168.756,22
-168.514,21
-168.272,25
-168.03,29
-167.789,38
-167.547,23
-167.305,25
-167.063,36
-166.821,32
-166.58,34
-166.338,22
-166.096,29
-165.854,16
-165.612,21
-165.37,18
-165.129,30
-164.887,26
-164.645,24
-164.403,25
-164.161,26
-163.92,26
-163.678,20
-163.436,20
-163.194,24
-162.952,27
-162.71,29
-162.469,29
-162.227,20
-161.985,30
-161.743,22
-161.501,26
-161.26,25
-161.018,24
-160.776,22
-160.534,24
-160.292,23
-160.051,25
-159.809,27
-159.567,30
-159.325,25
-159.083,25
-158.841,24
-158.6,36
-158.358,18
-158.116,32
-157.874,30
-157.632,25
-157.391,21
-157.149,27
-156.907,29
-156.665,19
-156.423,24
-156.181,31
-155.94,33
-155.698,23
-155.456,24
-155.214,31
-154.972,23
-154.731,24
-154.489,20
-154.247,43
-154.005,21
-153.763,31
-153.521,14
-153.28,20
-153.038,24
-152.796,25
-152.554,23
-152.312,23
-152.071,24
-151.829,31
-151.587,26
-151.345,27
-151.103,18
-150.861,25
-150.62,22
-150.378,41
-150.136,25
-149.894,29
-149.652,25
-149.411,27
-149.169,26
-148.927,30
-148.685,31
-148.443,18
-148.201,18
-147.96,21
-147.718,31
-147.476,26
-147.234,16
-146.992,28
-146.751,19
-146.509,21
-146.267,24
-146.025,27
-145.783,28
-145.541,23
-145.3,21
-145.058,28
-144.816,21
-144.574,19
-144.332,29
-144.091,19
-143.849,22
-143.607,21
-143.365,31
-143.123,29
-142.882,18
-142.64,31
-142.398,29
-142.156,17
-141.914,33
-141.672,36
-141.431,22
-141.189,30
-140.947,24
-140.705,27
-140.463,18
-140.222,20
-139.98,16
-139.738,24
-139.496,22
-139.254,22
-139.012,20
-138.771,29
-138.529,31
-138.287,18
-138.045,23
-137.803,29
-137.562,32
-137.32,34
-137.078,25
-136.836,15
-136.594,21
-136.352,35
-136.111,23
-135.869,18
-135.627,29
-135.385,30
-135.143,24
-134.902,23
-134.66,34
-134.418,31
-134.176,36
-133.934,19
-133.692,13
-133.451,21
-133.209,25
-132.967,20
-132.725,29
-132.483,25
-132.242,34
-132,28
-131.758,23
-131.516,29
-131.274,32
-131.032,23
-130.791,30
-130.549,27
-130.307,25
-130.065,29
-129.823,25
-129.582,29
-129.34,23
-129.098,25
-128.856,22
-128.614,19
-128.372,20
-128.131,19
-127.889,21
-127.647,20
-127.405,23
-127.163,28
-126.922,34
-126.68,29
-126.438,26
-126.196,26
-125.954,26
-125.712,37
-125.471,17
-125.229,26
-124.987,23
-124.745,28
-124.503,28
-124.262,19
-124.02,18
-123.778,25
-123.536,26
-123.294,25
-123.053,20
-122.811,22
-122.569,29
-122.327,35
-122.085,16
-121.843,27
-121.602,27
-121.36,21
-121.118,20
-120.876,28
-120.634,36
-120.393,28
-120.151,21
-119.909,31
-119.667,29
-119.425,21
-119.183,18
-118.942,24
-118.7,28
-118.458,19
-118.216,25
-117.974,29
-117.733,29
-117.491,31
-117.249,31
-117.007,21
-116.765,24
-116.523,16
-116.282,31
-116.04,29
-115.798,21
-115.556,24
-115.314,25
-115.073,22
-114.831,21
-114.589,16
-114.347,27
-114.105,26
-113.863,19
-113.622,20
-113.38,30
-113.138,27
-112.896,24
-112.654,16
-112.413,18
-112.171,21
-111.929,22
-111.687,27
-111.445,24
-111.203,25
-110.962,33
-110.72,28
-110.478,31
-110.236,23
-109.994,23
-109.753,24
-109.511,16
-109.269,21
-109.027,22
-108.785,24
-108.543,28
-108.302,24
-108.06,26
-107.818,23
-107.576,41
-107.334,21
-107.093,25
-106.851,36
-106.609,34
-106.367,24
-106.125,30
-105.883,27
-105.642,30
-105.4,29
-105.158,30
-104.916,23
-104.674,22
-104.433,30
-104.191,33
-103.949,18
-103.707,25
-103.465,21
-103.224,28
-102.982,25
-102.74,17
-102.498,21
-102.256,28
-102.014,23
-101.773,24
-101.531,20
-101.289,33
-101.047,24
-100.805,27
-100.564,23
-100.322,25
-100.08,18
-99.8381,27
-99.5963,29
-99.3544,29
-99.1126,29
-98.8708,35
-98.629,25
-98.3872,21
-98.1454,23
-97.9035,23
-97.6617,30
-97.4199,30
-97.1781,24
-96.9363,31
-96.6945,27
-96.4526,29
-96.2108,24
-95.969,23
-95.7272,27
-95.4854,27
-95.2435,34
-95.0017,18
-94.7599,30
-94.5181,30
-94.2763,20
-94.0345,32
-93.7926,25
-93.5508,18
-93.309,30
-93.0672,30
-92.8254,25
-92.5836,29
-92.3417,28
-92.0999,32
-91.8581,28
-91.6163,17
-91.3745,32
-91.1327,24
-90.8908,26
-90.649,23
-90.4072,35
-90.1654,25
-89.9236,24
-89.6818,24
-89.4399,23
-89.1981,17
-88.9563,28
-88.7145,30
-88.4727,28
-88.2309,20
-87.989,22
-87.7472,15
-87.5054,27
-87.2636,18
-87.0218,23
-86.78,33
-86.5381,31
-86.2963,35
-86.0545,26
-85.8127,22
-85.5709,25
-85.329,25
-85.0872,37
-84.8454,31
-84.6036,23
-84.3618,21
-84.12,31
-83.8782,27
-83.6363,33
-83.3945,26
-83.1527,36
-82.9109,39
-82.6691,24
-82.4272,25
-82.1854,34
-81.9436,28
-81.7018,28
-81.46,24
-81.2182,25
-80.9763,22
-80.7345,28
-80.4927,34
-80.2509,24
-80.0091,25
-79.7673,23
-79.5254,21
-79.2836,25
-79.0418,39
-78.8,37
-78.5582,29
-78.3164,12
-78.0745,31
-77.8327,30
-77.5909,16
-77.3491,21
-77.1073,22
-76.8655,21
-76.6236,24
-76.3818,29
-76.14,29
-75.8982,39
-75.6564,31
-75.4146,19
-75.1727,17
-74.9309,19
-74.6891,26
-74.4473,27
-74.2055,22
-73.9637,24
-73.7218,23
-73.48,24
-73.2382,29
-72.9964,30
-72.7546,22
-72.5127,21
-72.2709,26
-72.0291,26
-71.7873,21
-71.5455,21
-71.3037,26
-71.0618,22
-70.82,25
-70.5782,27
-70.3364,29
-70.0946,34
-69.8528,22
-69.6109,31
-69.3691,35
-69.1273,21
-68.8855,27
-68.6437,40
-68.4019,31
-68.16,26
-67.9182,22
-67.6764,24
-67.4346,24
-67.1928,30
-66.951,33
-66.7091,26
-66.4673,29
-66.2255,27
-65.9837,26
-65.7419,22
-65.5001,20
-65.2582,26
-65.0164,26
-64.7746,33
-64.5328,35
-64.291,21
-64.0492,28
-63.8073,25
-63.5655,34
-63.3237,25
-63.0819,21
-62.8401,21
-62.5983,24
-62.3564,27
-62.1146,23
-61.8728,27
-61.631,21
-61.3892,24
-61.1474,30
-60.9055,36
-60.6637,28
-60.4219,25
-60.1801,32
-59.9383,23
-59.6964,22
-59.4546,23
-59.2128,35
-58.971,29
-58.7292,25
-58.4874,30
-58.2455,40
-58.0037,20
-57.7619,26
-57.5201,29
-57.2783,37
-57.0365,24
-56.7946,22
-56.5528,28
-56.311,25
-56.0692,30
-55.8274,26
-55.5856,21
-55.3437,30
-55.1019,19
-54.8601,15
-54.6183,23
-54.3765,32
-54.1347,23
-53.8928,32
-53.651,25
-53.4092,26
-53.1674,29
-52.9256,32
-52.6838,26
-52.4419,25
-52.2001,26
-51.9583,35
-51.7165,33
-51.4747,30
-51.2329,24
-50.991,27
-50.7492,29
-50.5074,28
-50.2656,36
-50.0238,27
-49.782,32
-49.5401,39
-49.2983,22
-49.0565,33
-48.8147,40
-48.5729,32
-48.3311,26
-48.0892,24
-47.8474,27
-47.6056,21
-47.3638,27
-47.122,24
-46.8801,29
-46.6383,26
-46.3965,22
-46.1547,30
-45.9129,21
-45.6711,31
-45.4292,30
-45.1874,31
-44.9456,29
-44.7038,16
-44.462,27
-44.2202,21
-43.9783,32
-43.7365,28
-43.4947,35
-43.2529,22
-43.0111,36
-42.7693,32
-42.5274,37
-42.2856,26
-42.0438,26
-41.802,27
-41.5602,33
-41.3184,24
-41.0765,32
-40.8347,32
-40.5929,25
-40.3511,26
-40.1093,29
-39.8675,34
-39.6256,30
-39.3838,34
-39.142,31
-38.9002,32
-38.6584,29
-38.4166,27
-38.1747,22
-37.9329,34
-37.6911,37
-37.4493,33
-37.2075,32
-36.9657,23
-36.7238,28
-36.482,32
-36.2402,36
-35.9984,31
-35.7566,35
-35.5147,27
-35.2729,33
-35.0311,28
-34.7893,24
-34.5475,35
-34.3057,24
-34.0638,31
-33.822,18
-33.5802,32
-33.3384,34
-33.0966,29
-32.8548,26
-32.6129,29
-32.3711,38
-32.1293,39
-31.8875,27
-31.6457,31
-31.4039,34
-31.162,35
-30.9202,25
-30.6784,49
-30.4366,31
-30.1948,35
-29.953,45
-29.7111,29
-29.4693,27
-29.2275,36
-28.9857,24
-28.7439,32
-28.5021,37
-28.2602,27
-28.0184,36
-27.7766,38
-27.5348,25
-27.293,38
-27.0512,29
-26.8093,37
-26.5675,30
-26.3257,53
-26.0839,30
-25.8421,34
-25.6003,26
-25.3584,36
-25.1166,30
-24.8748,32
-24.633,28
-24.3912,32
-24.1493,31
-23.9075,28
-23.6657,31
-23.4239,32
-23.1821,39
-22.9403,30
-22.6984,41
-22.4566,33
-22.2148,36
-21.973,41
-21.7312,33
-21.4894,40
-21.2475,38
-21.0057,32
-20.7639,30
-20.5221,32
-20.2803,41
-20.0385,30
-19.7966,32
-19.5548,38
-19.313,40
-19.0712,37
-18.8294,50
-18.5876,31
-18.3457,33
-18.1039,40
-17.8621,32
-17.6203,37
-17.3785,46
-17.1367,34
-16.8948,46
-16.653,34
-16.4112,38
-16.1694,37
-15.9276,32
-15.6858,36
-15.4439,43
-15.2021,30
-14.9603,33
-14.7185,22
-14.4767,28
-14.2349,50
-13.993,40
-13.7512,43
-13.5094,33
-13.2676,43
-13.0258,42
-12.784,43
-12.5421,36
-12.3003,31
-12.0585,32
-11.8167,32
-11.5749,33
-11.333,38
-11.0912,39
-10.8494,38
-10.6076,39
-10.3658,37
-10.124,43
-9.88215,29
-9.64033,36
-9.39851,32
-9.1567,47
-8.91488,36
-8.67306,37
-8.43125,40
-8.18943,47
-7.94761,50
-7.70579,36
-7.46398,26
-7.22216,31
-6.98034,45
-6.73853,42
-6.49671,40
-6.25489,46
-6.01308,44
-5.77126,29
-5.52944,48
-5.28762,48
-5.04581,40
-4.80399,29
-4.56217,44
-4.32036,32
-4.07854,41
-3.83672,38
-3.59491,50
-3.35309,46
-3.11127,50
-2.86945,56
-2.62764,42
-2.38582,31
-2.144,52
-1.90219,35
-1.66037,52
-1.41855,59
-1.17674,47
-0.934918,53
-0.693101,53
-0.451284,39
-0.209467,56
0.0323496,47
0.274167,41
0.515984,36
0.757801,59
0.999618,60
1.24143,51
1.48325,44
1.72507,41
1.96689,50
2.2087,54
2.45052,53
2.69234,50
2.93415,66
3.17597,40
3.41779,47
3.6596,43
3.90142,57
4.14324,46
4.38506,45
4.62687,45
4.86869,58
5.11051,49
5.35232,51
5.59414,46
5.83596,52
6.07777,43
6.31959,64
6.56141,51
6.80323,42
7.04504,66
7.28686,53
7.52868,57
7.77049,67
8.01231,60
8.25413,52
8.49594,67
8.73776,53
8.97958,59
9.2214,46
9.46321,54
9.70503,46
9.94685,70
10.1887,40
10.4305,49
10.6723,70
10.9141,59
11.1559,62
11.3977,66
11.6396,71
11.8814,71
12.1232,70
12.365,65
12.6068,67
12.8486,65
13.0905,67
13.3323,70
13.5741,73
13.8159,68
14.0577,54
14.2996,79
14.5414,67
14.7832,74
15.025,81
15.2668,53
15.5086,77
15.7505,77
15.9923,71
16.2341,78
16.4759,73
16.7177,75
16.9595,86
17.2014,80
17.4432,90
17.685,88
17.9268,83
18.1686,77
18.4104,98
18.6523,104
18.8941,107
19.1359,101
19.3777,107
19.6195,124
19.8613,101
20.1032,107
20.345,113
20.5868,137
20.8286,129
21.0704,117
21.3122,139
21.5541,118
21.7959,148
22.0377,128
22.2795,161
22.5213,147
22.7631,154
23.005,182
23.2468,175
23.4886,164
23.7304,188
23.9722,210
24.2141,210
24.4559,222
24.6977,202
24.9395,246
25.1813,260
25.4231,236
25.665,220
25.9068,282
26.1486,240
26.3904,308
26.6322,293
26.874,314
27.1159,307
27.3577,338
27.5995,316
27.8413,350
28.0831,348
28.3249,406
28.5668,413
28.8086,449
29.0504,430
29.2922,472
29.534,493
29.7758,489
30.0177,475
30.2595,569
30.5013,548
30.7431,552
30.9849,592
31.2267,677
31.4686,689
31.7104,705
31.9522,740
32.194,748
32.4358,739
32.6776,811
32.9195,832
33.1613,860
33.4031,881
33.6449,867
33.8867,999
34.1285,990
34.3704,1011
34.6122,1044
34.854,1106
35.0958,1130
35.3376,1157
35.5794,1204
35.8213,1253
36.0631,1284
36.3049,1300
36.5467,1378
36.7885,1349
37.0303,1488
37.2722,1507
37.514,1575
37.7558,1630
37.9976,1654
38.2394,1733
38.4813,1745
38.7231,1770
38.9649,1856
39.2067,1874
39.4485,1994
39.6903,1982
39.9322,1977
40.174,2128
40.4158,2142
40.6576,2131
40.8994,2130
41.1412,2292
41.3831,2390
41.6249,2424
41.8667,2602
42.1085,2568
42.3503,2524
42.5921,2666
42.834,2741
43.0758,2648
43.3176,2846
43.5594,3009
43.8012,3029
44.043,3171
44.2849,3030
44.5267,3209
44.7685,3260
45.0103,3297
45.2521,3373
45.4939,3363
45.7358,3488
45.9776,3477
46.2194,3716
46.4612,3639
46.703,3682
46.9448,3835
47.1867,3977
47.4285,3847
47.6703,4092
47.9121,3929
48.1539,4124
48.3957,4273
48.6376,4267
48.8794,4284
49.1212,4333
49.363,4291
49.6048,4483
49.8466,4503
50.0885,4575
50.3303,4519
50.5721,4661
50.8139,4752
51.0557,4850
51.2976,4866
51.5394,4765
51.7812,5084
52.023,5167
52.2648,5014
52.5066,5234
52.7485,5175
52.9903,5223
53.2321,5414
53.4739,5400
53.7157,5491
53.9575,5410
54.1994,5529
54.4412,5459
54.683,5655
54.9248,5681
55.1666,5630
55.4084,5624
55.6503,5693
55.8921,5808
56.1339,6032
56.3757,5875
56.6175,5993
56.8593,5973
57.1012,6076
57.343,6033
57.5848,6204
57.8266,6317
58.0684,6288
58.3102,6327
58.5521,6442
58.7939,6483
59.0357,6306
59.2775,6407
59.5193,6484
59.7611,6499
60.003,6737
60.2448,6547
60.4866,6832
60.7284,6646
60.9702,6935
61.2121,6698
61.4539,6896
61.6957,6869
61.9375,6811
62.1793,7040
62.4211,6929
62.663,6831
62.9048,6997
63.1466,6987
63.3884,7002
63.6302,7148
63.872,7142
64.1139,6978
64.3557,7221
64.5975,7095
64.8393,7226
65.0811,7197
65.3229,7235
65.5648,7303
65.8066,7294
66.0484,7253
66.2902,7255
66.532,7362
66.7738,7270
67.0157,7363
67.2575,7349
67.4993,7395
67.7411,7454
67.9829,7386
68.2247,7432
68.4666,7446
68.7084,7563
68.9502,7511
69.192,7547
69.4338,7518
69.6756,7572
69.9175,7453
70.1593,7552
70.4011,7494
70.6429,7492
70.8847,7510
71.1265,7435
71.3684,7491
71.6102,7465
71.852,7502
72.0938,7300
72.3356,7639
72.5774,7504
72.8193,7767
73.0611,7589
73.3029,7630
73.5447,7605
73.7865,7652
74.0284,7680
74.2702,7697
74.512,7630
74.7538,7666
74.9956,7626
75.2374,7660
75.4793,7511
75.7211,7737
75.9629,7508
76.2047,7553
76.4465,7600
76.6883,7539
76.9302,7371
77.172,7510
77.4138,7527
77.6556,7605
77.8974,7658
78.1392,7676
78.3811,7611
78.6229,7590
78.8647,7801
79.1065,7644
79.3483,7526
79.5901,7582
79.832,7603
80.0738,7510
80.3156,7601
80.5574,7629
80.7992,7585
81.041,7470
81.2829,7442
81.5247,7494
81.7665,7536
82.0083,7410
82.2501,7633
82.4919,7539
82.7338,7707
82.9756,7545
83.2174,7504
83.4592,7357
83.701,7631
83.9428,7435
84.1847,7479
84.4265,7460
84.6683,7472
84.9101,7401
85.1519,7339
85.3938,7416
85.6356,7504
85.8774,7248
86.1192,7390
86.361,7537
86.6028,7339
86.8447,7387
87.0865,7477
87.3283,7429
87.5701,7316
87.8119,7248
88.0537,7369
88.2956,7435
88.5374,7400
88.7792,7239
89.021,7297
89.2628,7216
89.5046,7281
89.7465,7361
89.9883,7144
90.2301,6994
90.4719,7390
90.7137,7129
90.9555,7201
91.1974,7262
91.4392,7242
91.681,7161
91.9228,7241
92.1646,6947
92.4064,7040
92.6483,7152
92.8901,7066
93.1319,7223
93.3737,7122
93.6155,7079
93.8573,7041
94.0992,7113
94.341,6970
94.5828,6896
94.8246,6918
95.0664,7095
95.3082,7100
95.5501,6921
95.7919,7141
96.0337,7025
96.2755,6937
96.5173,6841
96.7591,6905
97.001,7036
97.2428,6974
97.4846,6912
97.7264,6923
97.9682,6935
98.2101,6921
98.4519,6836
98.6937,6872
98.9355,6824
99.1773,7054
99.4191,6889
99.6609,6795
99.9028,6854
100.145,6743
100.386,6881
100.628,6745
100.87,6861
101.112,6805
101.354,6703
101.595,6706
101.837,6784
102.079,6695
102.321,6694
102.563,6739
102.805,6929
103.046,6889
103.288,6716
103.53,6727
103.772,6692
104.014,6597
104.255,6538
104.497,6620
104.739,6602
104.981,6639
105.223,6438
105.465,6660
105.706,6646
105.948,6478
106.19,6526
106.432,6584
106.674,6411
106.915,6691
107.157,6597
107.399,6442
107.641,6583
107.883,6529
108.125,6623
108.366,6600
108.608,6381
108.85,6277
109.092,6384
109.334,6332
109.575,6444
109.817,6429
110.059,6297
110.301,6265
110.543,6390
110.785,6289
111.026,6286
111.268,6346
111.51,6223
111.752,6272
111.994,6188
112.235,6256
112.477,6196
112.719,6202
112.961,6264
113.203,6322
113.445,6144
113.686,6186
113.928,6181
114.17,6199
114.412,6146
114.654,6143
114.895,6170
115.137,6111
115.379,6160
115.621,6176
115.863,6058
116.105,6178
116.346,5951
116.588,6201
116.83,6161
117.072,6055
117.314,6035
117.555,6063
117.797,6144
118.039,6031
118.281,5994
118.523,6039
118.764,6266
119.006,5869
119.248,6056
119.49,5842
119.732,6127
119.974,6058
120.215,5959
120.457,5918
120.699,5918
120.941,5947
121.183,5844
121.424,5870
121.666,5991
121.908,5899
122.15,5866
122.392,5766
122.634,5867
122.875,5851
123.117,5809
123.359,5744
123.601,5731
123.843,5886
124.084,5924
124.326,5814
124.568,5850
124.81,5852
125.052,5695
125.294,5754
125.535,5795
125.777,5658
126.019,5786
126.261,5769
126.503,5723
126.744,5748
126.986,5641
127.228,5535
127.47,5611
127.712,5539
127.954,5632
128.195,5592
128.437,5686
128.679,5592
128.921,5584
129.163,5546
129.404,5437
129.646,5599
129.888,5598
130.13,5585
130.372,5535
130.614,5514
130.855,5438
131.097,5473
131.339,5326
131.581,5373
131.823,5471
132.064,5608
132.306,5452
132.548,5347
132.79,5554
133.032,5455
133.274,5469
133.515,5346
133.757,5400
133.999,5444
134.241,5293
134.483,5347
134.724,5341
134.966,5251
135.208,5340
135.45,5195
135.692,5273
135.934,5409
136.175,5408
136.417,5431
136.659,5244
136.901,5266
137.143,5267
137.384,5149
137.626,5216
137.868,5314
138.11,5223
138.352,5190
138.593,5311
138.835,5201
139.077,5309
139.319,5023
139.561,5218
139.803,5175
140.044,5247
140.286,5308
140.528,5011
140.77,5165
141.012,5003
141.253,5081
141.495,5122
141.737,5092
141.979,5195
142.221,5088
142.463,5094
142.704,4967
142.946,5004
143.188,5115
143.43,5002
143.672,5062
143.913,5010
144.155,4995
144.397,5016
144.639,4931
144.881,4798
145.123,4973
145.364,4950
145.606,4962
145.848,4924
146.09,4750
146.332,4985
146.573,4826
146.815,4983
147.057,4978
147.299,5045
147.541,4783
147.783,4885
148.024,4949
148.266,4867
148.508,4975
148.75,4825
148.992,4787
149.233,4880
149.475,4773
149.717,4690
149.959,4760
150.201,4795
150.443,4735
150.684,4729
150.926,4682
151.168,4904
151.41,4769
151.652,4845
151.893,4741
152.135,4678
152.377,4680
152.619,4695
152.861,4682
153.103,4619
153.344,4639
153.586,4679
153.828,4642
154.07,4629
154.312,4680
154.553,4636
154.795,4601
155.037,4694
155.279,4631
155.521,4549
155.762,4552
156.004,4616
156.246,4668
156.488,4589
156.73,4602
156.972,4584
157.213,4532
157.455,4623
157.697,4445
157.939,4575
158.181,4530
158.422,4545
158.664,4521
158.906,4560
159.148,4496
159.39,4547
159.632,4499
159.873,4393
160.115,4357
160.357,4424
160.599,4470
160.841,4470
161.082,4430
161.324,4291
161.566,4370
161.808,4480
162.05,4383
162.292,4346
162.533,4380
162.775,4359
163.017,4343
163.259,4397
163.501,4427
163.742,4380
163.984,4363
164.226,4282
164.468,4304
164.71,4407
164.952,4282
165.193,4320
165.435,4207
165.677,4246
165.919,4307
166.161,4174
166.402,4235
166.644,4199
166.886,4185
167.128,4080
167.37,4263
167.612,4146
167.853,4245
168.095,4185
168.337,4263
168.579,4274
168.821,4288
169.062,4219
169.304,4145
169.546,4066
169.788,4154
170.03,4113
170.272,4033
170.513,4157
170.755,4122
170.997,4112
171.239,4114
171.481,4060
171.722,3988
171.964,4062
172.206,4078
172.448,4136
172.69,4081
172.932,4079
173.173,3919
173.415,4091
173.657,4108
173.899,4003
174.141,4032
174.382,4039
174.624,4004
174.866,4095
175.108,3909
175.35,3966
175.591,4023
175.833,3973
176.075,4024
176.317,3985
176.559,3951
176.801,3884
177.042,3979
177.284,3917
177.526,3902
177.768,3932
178.01,3904
178.251,3860
178.493,3793
178.735,3950
178.977,3937
179.219,3764
179.461,3836
179.702,3864
179.944,3910
180.186,3755
180.428,3784
180.67,3834
180.911,3860
181.153,3882
181.395,3787
181.637,3760
181.879,3751
182.121,3739
182.362,3756
182.604,3783
182.846,3683
183.088,3696
183.33,3710
183.571,3769
183.813,3627
184.055,3842
184.297,3785
184.539,3765
184.781,3594
185.022,3638
185.264,3622
185.506,3790
185.748,3651
185.99,3595
186.231,3633
186.473,3698
186.715,3726
186.957,3668
187.199,3640
187.441,3615
187.682,3591
187.924,3472
188.166,3563
188.408,3662
188.65,3525
188.891,3529
189.133,3665
189.375,3647
189.617,3561
189.859,3574
190.101,3481
190.342,3563
190.584,3673
190.826,3457
191.068,3499
191.31,3567
191.551,3343
191.793,3519
192.035,3434
192.277,3507
192.519,3295
192.76,3530
193.002,3473
193.244,3486
193.486,3407
193.728,3510
193.97,3435
194.211,3424
194.453,3482
194.695,3383
194.937,3460
195.179,3417
195.42,3345
195.662,3442
195.904,3303
196.146,3420
196.388,3361
196.63,3339
196.871,3389
197.113,3352
197.355,3408
197.597,3287
197.839,3372
198.08,3351
198.322,3395
198.564,3324
198.806,3375
199.048,3347
199.29,3365
199.531,3287
199.773,3184
200.015,3352
200.257,3266
200.499,3290
200.74,3295
200.982,3263
201.224,3364
201.466,3258
201.708,3231
201.95,3246
202.191,3205
202.433,3229
202.675,3199
202.917,3292
203.159,3195
203.4,3342
203.642,3273
203.884,3284
204.126,3163
204.368,3183
204.61,3228
204.851,3174
205.093,3212
205.335,3197
205.577,3069
205.819,3090
206.06,3091
206.302,3142
206.544,3097
206.786,3153
207.028,3183
207.27,3079
207.511,3134
207.753,3106
207.995,2978
208.237,3089
208.479,3172
208.72,3032
208.962,3044
209.204,2989
209.446,3044
209.688,2921
209.93,3037
210.171,2978
210.413,2986
210.655,3056
210.897,3005
211.139,3050
211.38,2976
211.622,3032
211.864,2985
212.106,2902
212.348,2993
212.589,2948
212.831,2983
213.073,2987
213.315,3087
213.557,2989
213.799,3021
214.04,2862
214.282,2935
214.524,2980
214.766,2939
215.008,3028
215.249,2999
215.491,2922
215.733,2909
215.975,2908
216.217,2931
216.459,2887
216.7,2880
216.942,2993
217.184,2843
217.426,2877
217.668,2934
217.909,2934
218.151,2849
218.393,2922
218.635,2801
218.877,2891
219.119,2872
219.36,2870
219.602,2810
219.844,2946
220.086,2886
220.328,2793
220.569,2808
220.811,2767
221.053,2724
221.295,2853
221.537,2830
221.779,2772
222.02,2778
222.262,2912
222.504,2698
222.746,2848
222.988,2699
223.229,2788
223.471,2810
223.713,2730
223.955,2667
224.197,2769
224.439,2766
224.68,2726
224.922,2707
225.164,2696
225.406,2808
225.648,2663
225.889,2738
226.131,2746
226.373,2785
226.615,2707
226.857,2742
227.099,2752
227.34,2787
227.582,2704
227.824,2707
228.066,2761
228.308,2640
228.549,2603
228.791,2730
229.033,2677
229.275,2640
229.517,2652
229.758,2676
230,2630
230.242,2677
230.484,2682
230.726,2660
230.968,2713
231.209,2639
231.451,2591
231.693,2625
231.935,2633
232.177,2559
232.418,2588
232.66,2536
232.902,2548
233.144,2506
233.386,2566
233.628,2534
233.869,2547
234.111,2491
234.353,2560
234.595,2460
234.837,2519
235.078,2498
235.32,2521
235.562,2531
235.804,2527
236.046,2513
236.288,2593
236.529,2514
236.771,2655
237.013,2515
237.255,2429
237.497,2474
237.738,2458
237.98,2517
238.222,2452
238.464,2496
238.706,2608
238.948,2476
239.189,2536
239.431,2525
239.673,2453
239.915,2477
240.157,2493
240.398,2452
240.64,2389
240.882,2403
241.124,2359
241.366,2398
241.608,2349
241.849,2480
242.091,2406
242.333,2456
242.575,2364
242.817,2349
243.058,2423
243.3,2443
243.542,2351
243.784,2401
244.026,2344
244.268,2436
244.509,2504
244.751,2373
244.993,2400
245.235,2250
245.477,2410
245.718,2446
245.96,2343
246.202,2365
246.444,2341
246.686,2435
246.928,2367
247.169,2178
247.411,2344
247.653,2308
247.895,2422
248.137,2253
248.378,2224
248.62,2255
248.862,2297
249.104,2274
249.346,2406
249.587,2310
249.829,2268
250.071,2285
250.313,2286
250.555,2229
250.797,2277
251.038,2289
251.28,2249
251.522,2259
251.764,2297
252.006,2235
252.247,2375
252.489,2263
252.731,2280
252.973,2231
253.215,2251
253.457,2240
253.698,2252
253.94,2282
254.182,2228
254.424,2240
254.666,2152
254.907,2170
255.149,2240
255.391,2255
255.633,2205
255.875,2127
256.117,2166
256.358,2138
256.6,2116
256.842,2188
257.084,2150
257.326,2230
257.567,2193
257.809,2141
258.051,2184
258.293,2195
258.535,2152
258.777,2119
259.018,2100
259.26,2174
259.502,2174
259.744,2145
259.986,2077
260.227,2083
260.469,2160
260.711,2075
260.953,2108
261.195,2099
261.437,2143
261.678,2086
261.92,2055
262.162,2069
262.404,2059
262.646,2113
262.887,2173
263.129,2101
263.371,2143
263.613,2048
263.855,2093
264.096,2075
264.338,2006
264.58,2084
264.822,2041
265.064,2111
265.306,2061
265.547,2028
265.789,2029
266.031,1990
266.273,2112
266.515,2049
266.757,2021
266.998,2024
267.24,1980
267.482,2009
267.724,2023
267.966,1991
268.207,1988
268.449,1960
268.691,2004
268.933,2030
269.175,1990
269.416,2072
269.658,1995
269.9,2028
270.142,1979
270.384,2023
270.626,2000
270.867,1991
271.109,1994
271.351,1993
271.593,1927
271.835,1905
272.076,1869
272.318,1980
272.56,1930
272.802,1871
273.044,1997
273.286,1936
273.527,1959
273.769,1967
274.011,1939
274.253,1900
274.495,1860
274.736,1942
274.978,1884
275.22,1865
275.462,1899
275.704,1895
275.946,1979
276.187,1888
276.429,1829
276.671,1891
276.913,1832
277.155,1868
277.396,1926
277.638,1888
277.88,1931
278.122,1840
278.364,1937
278.606,1853
278.847,1877
279.089,1837
279.331,1836
279.573,1842
279.815,1797
280.056,1756
280.298,1821
280.54,1843
280.782,1859
281.024,1832
281.266,1852
281.507,1753
281.749,1832
281.991,1779
282.233,1753
282.475,1764
282.716,1772
282.958,1807
283.2,1766
283.442,1873
283.684,1780
283.926,1715
284.167,1813
284.409,1757
284.651,1786
284.893,1768
285.135,1684
285.376,1800
285.618,1759
285.86,1822
286.102,1786
286.344,1726
286.585,1760
286.827,1774
287.069,1780
287.311,1743
287.553,1773
287.795,1742
288.036,1753
288.278,1630
288.52,1739
288.762,1735
289.004,1718
289.245,1742
289.487,1748
289.729,1688
289.971,1818
290.213,1689
290.455,1654
290.696,1711
290.938,1795
291.18,1657
291.422,1618
291.664,1688
291.905,1647
292.147,1689
292.389,1720
292.631,1706
292.873,1707
293.115,1660
293.356,1602
293.598,1640
293.84,1597
294.082,1586
294.324,1655
294.565,1705
294.807,1609
295.049,1607
295.291,1679
295.533,1622
295.775,1658
296.016,1650
296.258,1609
296.5,1610
296.742,1595
296.984,1704
297.225,1608
297.467,1713
297.709,1591
297.951,1688
298.193,1580
298.435,1568
298.676,1628
298.918,1633
299.16,1510
299.402,1555
299.644,1613
299.885,1537
300.127,1524
300.369,1612
300.611,1619
300.853,1518
301.095,1549
301.336,1523
301.578,1502
301.82,1465
302.062,1542
302.304,1561
302.545,1490
302.787,1558
303.029,1576
303.271,1500
303.513,1577
303.754,1645
303.996,1574
304.238,1549
304.48,1466
304.722,1492
304.964,1526
305.205,1539
305.447,1424
305.689,1522
305.931,1501
306.173,1475
306.414,1455
306.656,1521
306.898,1480
307.14,1455
307.382,1430
307.624,1519
307.865,1485
308.107,1499
308.349,1472
308.591,1469
308.833,1436
309.074,1433
309.316,1555
309.558,1410
309.8,1472
310.042,1533
310.284,1497
310.525,1427
310.767,1475
311.009,1521
311.251,1515
311.493,1477
311.734,1451
311.976,1452
312.218,1429
312.46,1408
312.702,1481
312.944,1423
313.185,1436
313.427,1433
313.669,1426
313.911,1409
314.153,1393
314.394,1389
314.636,1362
314.878,1429
315.12,1448
315.362,1452
315.604,1451
315.845,1388
316.087,1377
316.329,1409
316.571,1322
316.813,1463
317.054,1417
317.296,1446
317.538,1344
317.78,1419
318.022,1354
318.264,1343
318.505,1347
318.747,1407
318.989,1403
319.231,1339
319.473,1371
319.714,1387
319.956,1417
320.198,1390
320.44,1377
320.682,1348
320.923,1364
321.165,1452
321.407,1385
321.649,1367
321.891,1346
322.133,1340
322.374,1345
322.616,1380
322.858,1351
323.1,1336
323.342,1312
323.583,1362
323.825,1349
324.067,1274
324.309,1344
324.551,1379
324.793,1366
325.034,1293
325.276,1350
325.518,1330
325.76,1364
326.002,1340
326.243,1328
326.485,1358
326.727,1291
326.969,1280
327.211,1322
327.453,1350
327.694,1340
327.936,1293
328.178,1298
328.42,1234
328.662,1281
328.903,1244
329.145,1269
329.387,1266
329.629,1197
329.871,1248
330.113,1308
330.354,1309
330.596,1260
330.838,1240
331.08,1291
331.322,1310
331.563,1293
331.805,1263
332.047,1270
332.289,1209
332.531,1243
332.773,1259
333.014,1238
333.256,1205
333.498,1285
333.74,1241
333.982,1260
334.223,1265
334.465,1223
334.707,1321
334.949,1196
335.191,1247
335.433,1191
335.674,1265
335.916,1256
336.158,1205
336.4,1263
336.642,1207
336.883,1260
337.125,1189
337.367,1186
337.609,1159
337.851,1225
338.092,1264
338.334,1238
338.576,1187
338.818,1156
339.06,1198
339.302,1178
339.543,1208
339.785,1173
340.027,1222
340.269,1223
340.511,1159
340.753,1205
340.994,1221
341.236,1187
341.478,1231
341.72,1231
341.962,1122
342.203,1202
342.445,1128
342.687,1152
342.929,1167
343.171,1174
343.412,1147
343.654,1112
343.896,1176
344.138,1103
344.38,1161
344.622,1215
344.863,1112
345.105,1160
345.347,1142
345.589,1112
345.831,1103
346.072,1115
346.314,1143
346.556,1192
346.798,1137
347.04,1141
347.282,1128
347.523,1094
347.765,1125
348.007,1091
348.249,1090
348.491,1143
348.732,1142
348.974,1122
349.216,1119
349.458,1107
349.7,1124
349.942,1105
350.183,1053
350.425,1134
350.667,1103
350.909,1107
351.151,1087
351.392,1073
351.634,1075
351.876,1085
352.118,1081
352.36,1060
352.602,1017
352.843,1139
353.085,1004
353.327,1095
353.569,1030
353.811,1078
354.052,1061
354.294,1050
354.536,1068
354.778,1124
355.02,1078
355.262,1085
355.503,1063
355.745,1082
355.987,1118
356.229,1093
356.471,1011
356.712,1054
356.954,1049
357.196,1040
357.438,1017
357.68,1040
357.922,1017
358.163,1036
358.405,1074
358.647,1007
358.889,1043
359.131,1040
359.372,1038
359.614,1063
359.856,1017
360.098,1048
360.34,1069
360.581,1012
360.823,994
361.065,962
361.307,993
361.549,993
361.791,1031
362.032,997
362.274,993
362.516,1084
362.758,996
363,949
363.241,1043
363.483,985
363.725,980
363.967,988
364.209,1012
364.451,1008
364.692,1050
364.934,971
365.176,989
365.418,981
365.66,960
365.901,968
366.143,993
366.385,965
366.627,1009
366.869,1022
367.111,973
367.352,976
367.594,995
367.836,980
368.078,997
368.32,966
368.561,1023
368.803,1022
369.045,947
369.287,922
369.529,986
369.771,992
370.012,968
370.254,963
370.496,918
370.738,981
370.98,934
371.221,931
371.463,1005
371.705,983
371.947,969
372.189,906
372.431,914
372.672,940
372.914,943
373.156,876
373.398,892
373.64,959
373.881,919
374.123,919
374.365,861
374.607,952
374.849,917
375.091,874
375.332,840
375.574,914
375.816,948
376.058,916
376.3,902
376.541,907
376.783,930
377.025,915
377.267,988
377.509,911
377.75,890
377.992,846
378.234,928
378.476,957
378.718,934
378.96,896
379.201,875
379.443,924
379.685,906
379.927,868
380.169,869
380.41,904
380.652,910
380.894,890
381.136,892
381.378,895
381.62,914
381.861,876
382.103,904
382.345,912
382.587,854
382.829,855
383.07,874
383.312,859
383.554,886
383.796,859
384.038,854
384.28,870
384.521,885
384.763,859
385.005,882
385.247,822
385.489,886
385.73,875
385.972,836
386.214,870
386.456,836
386.698,812
386.94,797
387.181,807
387.423,849
387.665,824
387.907,831
388.149,781
388.39,872
388.632,878
388.874,867
389.116,860
389.358,868
389.6,859
389.841,852
390.083,839
390.325,850
390.567,821
390.809,824
391.05,833
391.292,854
391.534,877
391.776,821
392.018,815
392.26,787
392.501,779
392.743,774
392.985,810
393.227,893
393.469,870
393.71,775
393.952,823
394.194,784
394.436,795
394.678,765
394.919,806
395.161,763
395.403,758
395.645,774
395.887,816
396.129,804
396.37,808
396.612,773
396.854,808
397.096,829
397.338,772
397.579,772
397.821,792
398.063,781
398.305,774
398.547,761
398.789,802
399.03,753
399.272,776
399.514,803
399.756,785
399.998,780
400.239,774
400.481,787
400.723,777
400.965,804
401.207,786
401.449,806
401.69,790
401.932,752
402.174,759
402.416,787
402.658,800
402.899,730
403.141,757
403.383,737
403.625,744
403.867,759
404.109,755
404.35,719
404.592,779
404.834,765
405.076,753
405.318,744
405.559,740
405.801,713
406.043,763
406.285,746
406.527,738
406.769,741
407.01,725
407.252,768
407.494,760
407.736,765
407.978,693
408.219,742
408.461,777
408.703,755
408.945,800
409.187,697
409.429,731
409.67,735
409.912,706
410.154,722
410.396,726
410.638,678
410.879,768
411.121,758
411.363,726
411.605,710
411.847,744
412.089,700
412.33,736
412.572,689
412.814,685
413.056,659
413.298,696
413.539,660
413.781,718
414.023,671
414.265,698
414.507,721
414.749,701
414.99,678
415.232,714
415.474,692
415.716,671
415.958,666
416.199,687
416.441,663
416.683,666
416.925,644
417.167,726
417.408,711
417.65,694
417.892,725
418.134,659
418.376,656
418.618,656
418.859,727
419.101,644
419.343,660
419.585,659
419.827,647
420.068,614
420.31,668
420.552,660
420.794,652
421.036,673
421.278,726
421.519,671
421.761,654
422.003,673
422.245,663
422.487,721
422.728,664
422.97,655
423.212,696
423.454,683
423.696,716
423.938,646
424.179,616
424.421,625
424.663,605
424.905,628
425.147,641
425.388,600
425.63,704
425.872,675
426.114,640
426.356,701
426.598,633
426.839,635
427.081,644
427.323,604
427.565,635
427.807,665
428.048,656
428.29,638
428.532,588
428.774,631
429.016,625
429.258,627
429.499,613
429.741,602
429.983,651
430.225,648
430.467,626
430.708,638
430.95,660
431.192,590
431.434,627
431.676,639
431.918,596
432.159,645
432.401,577
432.643,644
432.885,635
433.127,656
433.368,585
433.61,655
433.852,632
434.094,606
434.336,630
434.577,626
434.819,588
435.061,558
435.303,579
435.545,620
435.787,596
436.028,576
436.27,646
436.512,590
436.754,595
436.996,577
437.237,584
437.479,606
437.721,579
437.963,598
438.205,589
438.447,593
438.688,567
438.93,617
439.172,577
439.414,591
439.656,573
439.897,619
440.139,566
440.381,604
440.623,600
440.865,552
441.107,577
441.348,597
441.59,600
441.832,580
442.074,573
442.316,540
442.557,564
442.799,562
443.041,586
443.283,583
443.525,585
443.767,568
444.008,587
444.25,578
444.492,595
444.734,578
444.976,587
445.217,553
445.459,618
445.701,555
445.943,518
446.185,565
446.427,578
446.668,557
446.91,536
447.152,551
447.394,552
447.636,595
447.877,523
448.119,545
448.361,518
448.603,560
448.845,550
449.087,535
449.328,575
449.57,509
449.812,519
450.054,571
450.296,553
450.537,529
450.779,508
451.021,546
451.263,514
451.505,543
451.746,533
451.988,525
452.23,535
452.472,533
452.714,541
452.956,549
453.197,573
453.439,560
453.681,563
453.923,506
454.165,542
454.406,483
454.648,523
454.89,535
455.132,567
455.374,525
455.616,486
455.857,492
456.099,520
456.341,561
456.583,553
456.825,538
457.066,499
457.308,534
457.55,512
457.792,498
458.034,525
458.276,551
458.517,486
458.759,516
459.001,503
459.243,514
459.485,519
459.726,515
459.968,497
460.21,503
460.452,516
460.694,490
460.936,509
461.177,527
461.419,475
461.661,530
461.903,503
462.145,478
462.386,494
462.628,511
462.87,467
463.112,469
463.354,453
463.596,496
463.837,489
464.079,480
464.321,481
464.563,485
464.805,501
465.046,511
465.288,488
465.53,537
465.772,482
466.014,507
466.256,470
466.497,471
466.739,483
466.981,490
467.223,498
467.465,479
467.706,476
467.948,509
468.19,505
468.432,511
468.674,491
468.915,482
469.157,473
469.399,502
469.641,472
469.883,483
470.125,526
470.366,479
470.608,488
470.85,493
471.092,431
471.334,486
471.576,464
471.817,450
472.059,498
472.301,497
472.543,445
472.785,477
473.026,455
473.268,462
473.51,485
473.752,444
473.994,475
474.235,441
474.477,432
474.719,473
474.961,448
475.203,475
475.445,472
475.686,454
475.928,464
476.17,425
476.412,448
476.654,461
476.895,484
477.137,450
477.379,490
477.621,457
477.863,436
478.105,427
478.346,460
478.588,447
478.83,446
479.072,462
479.314,446
479.555,475
479.797,443
480.039,438
480.281,425
480.523,425
480.765,449
481.006,428
481.248,399
481.49,442
481.732,435
481.974,423
482.215,408
482.457,454
482.699,439
482.941,418
483.183,468
483.425,424
483.666,446
483.908,460
484.15,423
484.392,410
484.634,423
484.875,421
485.117,420
485.359,435
485.601,411
485.843,436
486.085,403
486.326,442
486.568,421
486.81,452
487.052,421
487.294,463
487.535,431
487.777,445
488.019,447
488.261,399
488.503,430
488.745,400
488.986,413
489.228,396
489.47,428
489.712,380
489.954,428
490.195,410
490.437,411
490.679,430
490.921,400
491.163,441
491.404,407
491.646,420
491.888,412
492.13,418
492.372,414
492.614,390
492.855,397
493.097,430
493.339,392
493.581,399
493.823,421
494.064,352
494.306,439
494.548,374
494.79,396
495.032,391
495.274,423
495.515,398
495.757,382
495.999,390
496.241,373
496.483,390
496.724,412
496.966,417
497.208,387
497.45,366
497.692,392
497.934,383
498.175,400
498.417,415
498.659,362
498.901,420
499.143,367
499.384,401
499.626,412
499.868,434
500.11,370
500.352,395
500.594,394
500.835,339
501.077,401
501.319,432
501.561,380
501.803,363
502.044,406
502.286,389
502.528,401
502.77,371
503.012,380
503.254,367
503.495,358
503.737,344
503.979,388
504.221,351
504.463,378
504.704,391
504.946,359
505.188,332
505.43,352
505.672,374
505.914,370
506.155,350
506.397,374
506.639,378
506.881,364
507.123,360
507.364,376
507.606,348
507.848,357
508.09,386
508.332,337
508.573,377
508.815,376
509.057,363
509.299,354
509.541,342
509.783,363
510.024,367
510.266,392
510.508,357
510.75,381
510.992,374
511.233,385
511.475,369
511.717,361
511.959,333
512.201,342
512.443,347
512.684,356
512.926,340
513.168,325
513.41,323
513.652,326
513.893,340
514.135,361
514.377,394
514.619,357
514.861,336
515.103,367
515.344,345
515.586,321
515.828,318
516.07,383
516.312,327
516.553,339
516.795,318
517.037,327
517.279,313
517.521,349
517.763,325
518.004,312
518.246,354
518.488,350
518.73,356
518.972,315
519.213,343
519.455,335
519.697,332
519.939,310
520.181,309
520.423,350
520.664,315
520.906,300
521.148,333
521.39,331
521.632,320
521.873,294
522.115,361
522.357,338
522.599,313
522.841,341
523.083,346
523.324,352
523.566,311
523.808,311
524.05,342
524.292,323
524.533,341
524.775,326
525.017,315
525.259,307
525.501,297
525.742,290
525.984,322
526.226,323
526.468,319
526.71,334
526.952,304
527.193,323
527.435,263
527.677,307
527.919,333
528.161,349
528.402,313
528.644,308
528.886,323
529.128,293
529.37,321
529.612,327
529.853,289
530.095,318
530.337,322
530.579,328
530.821,314
531.062,297
531.304,307
531.546,316
531.788,272
532.03,292
532.272,307
532.513,286
532.755,311
532.997,321
533.239,302
533.481,303
533.722,330
533.964,317
534.206,315
534.448,302
534.69,335
534.932,289
535.173,283
535.415,268
535.657,288
535.899,272
536.141,299
536.382,314
536.624,338
536.866,295
537.108,286
537.35,296
537.592,306
537.833,294
538.075,308
538.317,276
538.559,280
538.801,320
539.042,291
539.284,260
539.526,281
539.768,277
540.01,284
540.252,293
540.493,303
540.735,310
540.977,288
541.219,302
541.461,267
541.702,278
541.944,286
542.186,276
542.428,301
542.67,302
542.911,243
543.153,280
543.395,293
543.637,278
543.879,270
544.121,269
544.362,282
544.604,298
544.846,267
545.088,263
545.33,266
545.571,268
545.813,272
546.055,288
546.297,299
546.539,302
546.781,310
547.022,273
547.264,255
547.506,238
547.748,288
547.99,276
548.232,287
548.473,262
548.715,272
548.957,287
549.199,262
549.441,283
549.682,287
549.924,282
550.166,255
550.408,261
550.65,311
550.891,265
551.133,254
551.375,249
551.617,310
551.859,272
552.101,264
552.342,231
552.584,259
552.826,251
553.068,264
553.31,268
553.551,275
553.793,278
554.035,268
554.277,278
554.519,268
554.761,238
555.002,263
555.244,258
555.486,243
555.728,225
555.97,237
556.211,255
556.453,264
556.695,234
556.937,273
557.179,244
557.421,263
557.662,232
557.904,244
558.146,268
558.388,247
558.63,267
558.871,269
559.113,267
559.355,233
559.597,259
559.839,246
560.081,256
560.322,282
560.564,228
560.806,267
561.048,251
561.29,266
561.531,234
561.773,264
562.015,253
562.257,264
562.499,263
562.74,223
562.982,255
563.224,266
563.466,248
563.708,250
563.95,224
564.191,252
564.433,273
564.675,276
564.917,226
565.159,263
565.401,257
565.642,230
565.884,270
566.126,240
566.368,237
566.61,235
566.851,273
567.093,218
567.335,224
567.577,266
567.819,225
568.06,255
568.302,232
568.544,247
568.786,254
569.028,255
569.27,237
569.511,238
569.753,239
569.995,232
570.237,255
570.479,225
570.72,240
570.962,229
571.204,247
571.446,261
571.688,250
571.93,231
572.171,267
572.413,237
572.655,246
572.897,220
573.139,239
573.38,205
573.622,210
573.864,230
574.106,243
574.348,227
574.59,225
574.831,256
575.073,235
575.315,201
575.557,249
575.799,197
576.04,222
576.282,217
576.524,230
576.766,219
577.008,228
577.25,228
577.491,215
577.733,228
577.975,229
578.217,217
578.459,209
578.7,202
578.942,200
579.184,243
579.426,200
579.668,224
579.909,231
580.151,230
580.393,245
580.635,239
580.877,228
581.119,238
581.36,243
581.602,188
581.844,230
582.086,222
582.328,246
582.57,198
582.811,221
583.053,227
583.295,236
583.537,193
583.779,199
584.02,205
584.262,197
584.504,215
584.746,214
584.988,211
585.229,218
585.471,235
585.713,222
585.955,208
586.197,223
586.439,209
586.68,234
586.922,198
587.164,232
587.406,199
587.648,224
587.889,210
588.131,226
588.373,217
588.615,239
588.857,243
589.099,206
589.34,209
589.582,208
589.824,257
590.066,192
590.308,213
590.549,221
590.791,194
591.033,202
591.275,197
591.517,226
591.759,207
592,203
592.242,209
592.484,232
592.726,204
592.968,210
593.209,217
593.451,232
593.693,202
593.935,195
594.177,206
594.419,195
594.66,202
594.902,210
595.144,209
595.386,221
595.628,193
595.869,200
596.111,193
596.353,190
596.595,189
596.837,195
597.078,209
597.32,199
597.562,200
597.804,187
598.046,217
598.288,208
598.529,191
598.771,199
599.013,206
599.255,201
599.497,187
599.739,216
599.98,191
600.222,205
600.464,179
600.706,211
600.948,209
601.189,179
601.431,240
601.673,176
601.915,210
602.157,196
602.398,201
602.64,193
602.882,201
603.124,210
603.366,169
603.608,192
603.849,193
604.091,197
604.333,176
604.575,175
604.817,190
605.058,201
605.3,179
605.542,188
605.784,185
606.026,199
606.268,183
606.509,192
606.751,187
606.993,200
607.235,190
607.477,222
607.718,174
607.96,185
608.202,208
608.444,193
608.686,174
608.928,169
609.169,181
609.411,185
609.653,204
609.895,185
610.137,187
610.378,202
610.62,187
610.862,167
611.104,159
611.346,171
611.588,175
611.829,188
612.071,180
612.313,177
612.555,180
612.797,181
613.038,173
613.28,191
613.522,171
613.764,202
614.006,169
614.247,188
614.489,165
614.731,155
614.973,176
615.215,178
615.457,160
615.698,155
615.94,176
616.182,180
616.424,158
616.666,182
616.908,181
617.149,193
617.391,176
617.633,169
617.875,185
618.117,193
618.358,186
618.6,159
618.842,189
619.084,174
619.326,173
619.568,164
619.809,154
620.051,168
620.293,177
620.535,194
620.777,181
621.018,166
621.26,170
621.502,169
621.744,186
621.986,157
622.227,165
622.469,166
622.711,175
622.953,176
623.195,177
623.437,158
623.678,186
623.92,147
624.162,172
624.404,160
624.646,164
624.887,168
625.129,179
625.371,153
625.613,186
625.855,172
626.097,166
626.338,157
626.58,153
626.822,195
627.064,162
627.306,155
627.547,150
627.789,159
628.031,147
628.273,188
628.515,165
628.757,153
628.998,173
629.24,160
629.482,174
629.724,169
629.966,140
630.207,176
630.449,160
630.691,164
630.933,148
631.175,161
631.417,170
631.658,160
631.9,178
632.142,158
632.384,155
632.626,161
632.867,162
633.109,162
633.351,160
633.593,158
633.835,167
634.077,154
634.318,164
634.56,144
634.802,183
635.044,168
635.286,125
635.527,168
635.769,154
636.011,174
636.253,168
636.495,165
636.737,162
636.978,156
637.22,146
637.462,139
637.704,161
637.946,146
638.187,183
638.429,159
638.671,167
638.913,174
639.155,160
639.396,171
639.638,152
639.88,137
640.122,157
640.364,150
640.606,176
640.847,161
641.089,174
641.331,150
641.573,146
641.815,163
642.056,154
642.298,148
642.54,142
642.782,157
643.024,147
643.266,155
643.507,147
643.749,158
643.991,168
644.233,149
644.475,141
644.716,154
644.958,140
645.2,133
645.442,152
645.684,138
645.926,144
646.167,142
646.409,161
646.651,158
646.893,152
647.135,144
647.376,131
647.618,144
647.86,138
648.102,148
648.344,140
648.586,147
648.827,138
649.069,152
649.311,135
649.553,166
649.795,162
650.036,151
650.278,143
650.52,133
650.762,138
651.004,167
651.246,141
651.487,154
651.729,137
651.971,140
652.213,145
652.455,136
652.696,131
652.938,166
653.18,129
653.422,137
653.664,129
653.906,151
654.147,131
654.389,139
654.631,136
654.873,143
655.115,129
655.356,145
655.598,131
655.84,131
656.082,121
656.324,139
656.565,132
656.807,122
657.049,128
657.291,116
657.533,138
657.775,138
658.016,165
658.258,133
658.5,146
658.742,127
658.984,124
659.225,140
659.467,144
659.709,138
659.951,130
660.193,105
660.435,151
660.676,128
660.918,143
661.16,123
661.402,122
661.644,124
661.885,126
662.127,142
662.369,118
662.611,133
662.853,132
663.095,120
663.336,122
663.578,160
663.82,142
664.062,120
664.304,124
664.545,133
664.787,113
665.029,128
665.271,116
665.513,140
665.755,123
665.996,142
666.238,123
666.48,120
666.722,150
666.964,97
667.205,114
667.447,141
667.689,123
667.931,121
668.173,128
668.415,98
668.656,134
668.898,149
669.14,130
669.382,131
669.624,112
669.865,136
670.107,117
670.349,117
670.591,111
670.833,121
671.075,131
671.316,121
671.558,100
671.8,140
672.042,123
672.284,125
672.525,132
672.767,134
673.009,134
673.251,101
673.493,123
673.734,125
673.976,128
674.218,128
674.46,122
674.702,113
674.944,117
675.185,140
675.427,144
675.669,110
675.911,132
676.153,120
676.394,103
676.636,125
676.878,130
677.12,111
677.362,109
677.604,125
677.845,107
678.087,118
678.329,109
678.571,116
678.813,125
679.055,126
679.296,103
679.538,110
679.78,120
680.022,113
680.264,116
680.505,130
680.747,121
680.989,122
681.231,127
681.473,108
681.714,126
681.956,97
682.198,118
682.44,158
682.682,109
682.924,105
683.165,120
683.407,121
683.649,112
683.891,126
684.133,112
684.374,115
684.616,117
684.858,131
685.1,113
685.342,101
685.584,121
685.825,139
686.067,120
686.309,104
686.551,108
686.793,116
687.034,116
687.276,123
687.518,115
687.76,103
688.002,113
688.244,114
688.485,101
688.727,111
688.969,103
689.211,114
689.453,127
689.694,99
689.936,109
690.178,130
690.42,123
690.662,99
690.904,119
691.145,129
691.387,123
691.629,110
691.871,122
692.113,105
692.354,106
692.596,95
692.838,102
693.08,88
693.322,117
693.563,103
693.805,104
694.047,103
694.289,121
694.531,93
694.773,110
695.014,113
695.256,106
695.498,109
695.74,101
695.982,93
696.224,99
696.465,127
696.707,110
696.949,113
697.191,118
697.433,121
697.674,111
697.916,108
698.158,99
698.4,87
698.642,98
698.883,108
699.125,104
699.367,104
699.609,104
699.851,111
700.093,94
700.334,116
700.576,107
700.818,91
701.06,115
701.302,117
701.543,102
701.785,91
702.027,105
702.269,95
702.511,86
702.753,106
702.994,92
703.236,125
703.478,112
703.72,104
703.962,118
704.203,98
704.445,103
704.687,110
704.929,82
705.171,86
705.413,101
705.654,122
705.896,120
706.138,92
706.38,97
706.622,98
706.863,111
707.105,115
707.347,105
707.589,99
707.831,95
708.073,97
708.314,99
708.556,111
708.798,108
709.04,110
709.282,101
709.523,95
709.765,114
710.007,110
710.249,84
710.491,95
710.732,116
710.974,104
711.216,110
711.458,94
711.7,99
711.942,98
712.183,99
712.425,117
712.667,91
712.909,105
713.151,93
713.393,106
713.634,103
713.876,112
714.118,85
714.36,99
714.602,92
714.843,96
715.085,99
715.327,92
715.569,96
715.811,99
716.052,105
716.294,94
716.536,107
716.778,110
717.02,92
717.262,99
717.503,90
717.745,85
717.987,100
718.229,104
718.471,78
718.712,101
718.954,101
719.196,105
719.438,90
719.68,85
719.922,91
720.163,91
720.405,100
720.647,94
720.889,101
721.131,89
721.372,90
721.614,88
721.856,96
722.098,98
722.34,91
722.582,90
722.823,103
723.065,108
723.307,87
723.549,82
723.791,85
724.032,86
724.274,85
724.516,87
724.758,102
725,76
725.242,88
725.483,84
725.725,106
725.967,93
726.209,97
726.451,87
726.692,110
726.934,103
727.176,93
727.418,107
727.66,81
727.901,103
728.143,107
728.385,101
728.627,93
728.869,90
729.111,92
729.352,104
729.594,98
729.836,89
730.078,103
730.32,76
730.562,79
730.803,95
731.045,84
731.287,90
731.529,86
731.771,79
732.012,86
732.254,98
732.496,99
732.738,102
732.98,79
733.221,75
733.463,86
733.705,87
733.947,82
734.189,94
734.431,96
734.672,89
734.914,80
735.156,82
735.398,87
735.64,91
735.881,81
736.123,87
736.365,83
736.607,90
736.849,84
737.091,78
737.332,85
737.574,91
737.816,95
738.058,69
738.3,95
738.541,103
738.783,86
739.025,63
739.267,89
739.509,86
739.751,92
739.992,80
740.234,92
740.476,91
740.718,88
740.96,73
741.201,85
741.443,79
741.685,90
741.927,92
742.169,76
742.411,84
742.652,89
742.894,85
743.136,81
743.378,96
743.62,92
743.861,73
744.103,75
744.345,64
744.587,86
744.829,86
745.07,83
745.312,88
745.554,72
745.796,86
746.038,80
746.28,78
746.521,72
746.763,100
747.005,66
747.247,75
747.489,79
747.731,88
747.972,72
748.214,73
748.456,87
748.698,77
748.94,83
749.181,84
749.423,83
749.665,80
749.907,99
750.149,82
750.391,76
750.632,78
750.874,72
751.116,76
751.358,89
751.6,78
751.841,78
752.083,93
752.325,65
752.567,86
752.809,76
753.05,90
753.292,91
753.534,70
753.776,90
754.018,75
754.26,88
754.501,72
754.743,76
754.985,89
755.227,81
755.469,87
755.71,81
755.952,86
756.194,80
756.436,73
756.678,84
756.92,75
757.161,85
757.403,77
757.645,70
757.887,81
758.129,68
758.37,76
758.612,87
758.854,78
759.096,72
759.338,80
759.58,74
759.821,81
760.063,73
760.305,73
760.547,77
760.789,79
761.03,80
761.272,77
761.514,61
761.756,84
761.998,72
762.24,76
762.481,66
762.723,79
762.965,71
763.207,81
763.449,73
763.69,78
763.932,92
764.174,73
764.416,95
764.658,80
764.9,65
765.141,86
765.383,81
765.625,60
765.867,58
766.109,79
766.35,92
766.592,74
766.834,89
767.076,75
767.318,69
767.56,71
767.801,60
768.043,65
768.285,76
768.527,75
768.769,55
769.01,75
769.252,81
769.494,70
769.736,74
769.978,77
770.219,99
770.461,67
770.703,51
770.945,88
771.187,69
771.429,84
771.67,80
771.912,67
772.154,79
772.396,72
772.638,73
772.879,85
773.121,76
773.363,75
773.605,80
773.847,86
774.089,71
774.33,93
774.572,89
774.814,85
775.056,79
775.298,75
775.539,88
775.781,67
776.023,83
776.265,76
776.507,86
776.749,69
776.99,74
777.232,82
777.474,68
777.716,65
777.958,77
778.199,67
778.441,67
778.683,67
778.925,63
779.167,64
779.409,60
779.65,68
779.892,81
780.134,84
780.376,55
780.618,65
780.859,80
781.101,78
781.343,70
781.585,63
781.827,79
782.069,72
782.31,59
782.552,82
782.794,61
783.036,73
783.278,72
783.519,60
783.761,66
784.003,77
784.245,47
784.487,70
784.729,68
784.97,54
785.212,61
785.454,70
785.696,60
785.938,60
786.179,62
786.421,70
786.663,91
786.905,90
787.147,82
787.388,74
787.63,73
787.872,48
788.114,68
788.356,77
788.598,63
788.839,70
789.081,68
789.323,60
789.565,57
789.807,57
790.048,71
790.29,60
790.532,69
790.774,67
791.016,58
791.258,66
791.499,57
791.741,61
791.983,57
792.225,66
792.467,71
792.708,69
792.95,77
793.192,70
793.434,62
793.676,62
793.918,74
794.159,73
794.401,72
794.643,44
794.885,88
795.127,58
795.368,59
795.61,58
795.852,74
796.094,58
796.336,74
796.578,69
796.819,54
797.061,55
797.303,60
797.545,51
797.787,60
798.028,63
798.27,64
798.512,69
798.754,54
798.996,63
799.238,55
799.479,62
799.721,57
799.963,54
800.205,67
800.447,79
800.688,63
800.93,65
801.172,79
801.414,63
801.656,68
801.898,68
802.139,58
802.381,45
802.623,56
802.865,68
803.107,48
803.348,65
803.59,56
803.832,70
804.074,58
804.316,66
804.557,75
804.799,52
805.041,67
805.283,50
805.525,62
805.767,64
806.008,63
806.25,70
806.492,66
806.734,58
806.976,52
807.217,60
807.459,81
807.701,70
807.943,57
808.185,64
808.427,69
808.668,59
808.91,58
809.152,62
809.394,61
809.636,58
809.878,52
810.119,70
810.361,52
810.603,52
810.845,58
811.087,66
811.328,50
811.57,49
811.812,71
812.054,47
812.296,66
812.537,72
812.779,70
813.021,61
813.263,81
813.505,71
813.747,76
813.988,55
814.23,64
814.472,63
814.714,65
814.956,58
815.197,62
815.439,56
815.681,51
815.923,65
816.165,74
816.407,64
816.648,57
816.89,66
817.132,74
817.374,59
817.616,64
817.857,45
818.099,60
818.341,73
818.583,55
818.825,55
819.067,54
819.308,77
819.55,57
819.792,73
820.034,48
820.276,58
820.517,57
820.759,76
821.001,56
821.243,61
821.485,74
821.727,58
821.968,52
822.21,50
822.452,62
822.694,59
822.936,51
823.177,57
823.419,55
823.661,57
823.903,59
824.145,64
824.386,68
824.628,63
824.87,51
825.112,58
825.354,73
825.596,63
825.837,51
826.079,46
826.321,49
826.563,71
826.805,54
827.047,66
827.288,63
827.53,68
827.772,78
828.014,62
828.256,58
828.497,54
828.739,52
828.981,63
829.223,61
829.465,47
829.706,50
829.948,58
830.19,54
830.432,53
830.674,61
830.916,51
831.157,49
831.399,53
831.641,57
831.883,59
832.125,62
832.366,69
832.608,55
832.85,58
833.092,56
833.334,58
833.576,53
833.817,53
834.059,60
834.301,53
834.543,48
834.785,59
835.026,56
835.268,46
835.51,69
835.752,50
835.994,48
836.236,51
836.477,54
836.719,51
836.961,53
837.203,57
837.445,45
837.686,52
837.928,47
838.17,57
838.412,51
838.654,58
838.896,45
839.137,53
839.379,71
839.621,60
839.863,59
840.105,55
840.346,49
840.588,49
840.83,49
841.072,48
841.314,47
841.555,57
841.797,61
842.039,49
842.281,43
842.523,56
842.765,52
843.006,57
843.248,56
843.49,49
843.732,44
843.974,67
844.216,54
844.457,40
844.699,52
844.941,44
845.183,53
845.425,56
845.666,58
845.908,47
846.15,54
846.392,63
846.634,55
846.875,55
847.117,60
847.359,64
847.601,60
847.843,50
848.085,52
848.326,50
848.568,48
848.81,50
849.052,65
849.294,48
849.535,62
849.777,55
850.019,47
850.261,56
850.503,57
850.745,44
850.986,56
851.228,45
851.47,50
851.712,64
851.954,46
852.195,61
852.437,41
852.679,44
852.921,47
853.163,59
853.405,60
853.646,61
853.888,46
854.13,49
854.372,57
854.614,57
854.855,48
855.097,59
855.339,55
855.581,52
855.823,46
856.065,57
856.306,53
856.548,71
856.79,51
857.032,53
857.274,54
857.515,62
857.757,51
857.999,56
858.241,53
858.483,58
858.724,44
858.966,47
859.208,43
859.45,49
859.692,73
859.934,38
860.175,50
860.417,52
860.659,33
860.901,54
861.143,51
861.385,44
861.626,56
861.868,58
862.11,53
862.352,59
862.594,56
862.835,54
863.077,47
863.319,51
863.561,44
863.803,58
864.044,43
864.286,57
864.528,53
864.77,57
865.012,48
865.254,43
865.495,48
865.737,42
865.979,54
866.221,48
866.463,57
866.704,61
866.946,45
867.188,42
867.43,41
867.672,61
867.914,41
868.155,39
868.397,50
868.639,38
868.881,56
869.123,43
869.364,53
869.606,53
869.848,66
870.09,54
870.332,44
870.574,51
870.815,45
871.057,49
871.299,47
871.541,35
871.783,54
872.024,40
872.266,53
872.508,52
872.75,58
872.992,47
873.234,43
873.475,48
873.717,51
873.959,37
874.201,49
874.443,50
874.684,41
874.926,47
875.168,33
875.41,49
875.652,45
875.893,41
876.135,53
876.377,59
876.619,49
876.861,42
877.103,46
877.344,58
877.586,52
877.828,58
878.07,56
878.312,41
878.554,47
878.795,49
879.037,50
879.279,44
879.521,42
879.763,37
880.004,41
880.246,49
880.488,56
880.73,51
880.972,41
881.214,42
881.455,47
881.697,55
881.939,55
882.181,45
882.423,47
882.664,42
882.906,58
883.148,47
883.39,52
883.632,49
883.873,46
884.115,57
884.357,56
884.599,56
884.841,48
885.083,38
885.324,45
885.566,52
885.808,49
886.05,41
886.292,46
886.533,46
886.775,47
887.017,55
887.259,52
887.501,47
887.743,48
887.984,53
888.226,52
888.468,52
888.71,50
888.952,54
889.193,49
889.435,56
889.677,52
889.919,38
890.161,47
890.403,52
890.644,39
890.886,43
891.128,41
891.37,45
891.612,51
891.853,41
892.095,45
892.337,50
892.579,47
892.821,47
893.062,45
893.304,32
893.546,36
893.788,47
894.03,45
894.272,41
894.513,44
894.755,40
894.997,48
895.239,43
895.481,43
895.723,41
895.964,43
896.206,33
896.448,57
896.69,56
896.932,41
897.173,49
897.415,49
897.657,47
897.899,38
898.141,53
898.383,43
898.624,63
898.866,39
899.108,57
899.35,41
899.592,36
899.833,44
900.075,48
900.317,34
900.559,57
900.801,50
901.042,33
901.284,42
901.526,53
901.768,41
902.01,37
902.252,49
902.493,43
902.735,42
902.977,38
903.219,39
903.461,41
903.702,45
903.944,38
904.186,43
904.428,48
904.67,39
904.912,41
905.153,37
905.395,44
905.637,46
905.879,50
906.121,39
906.362,43
906.604,32
906.846,54
907.088,39
907.33,38
907.572,45
907.813,42
908.055,37
908.297,44
908.539,49
908.781,47
909.022,44
909.264,42
909.506,55
909.748,53
909.99,37
910.232,48
910.473,48
910.715,37
910.957,49
911.199,44
911.441,33
911.682,37
911.924,48
912.166,50
912.408,38
912.65,53
912.892,42
913.133,56
913.375,55
913.617,48
913.859,50
914.101,40
914.342,29
914.584,34
914.826,48
915.068,45
915.31,48
915.552,40
915.793,39
916.035,51
916.277,38
916.519,47
916.761,37
917.002,34
917.244,39
917.486,50
917.728,34
917.97,43
918.211,37
918.453,39
918.695,39
918.937,41
919.179,57
919.421,39
919.662,46
919.904,45
920.146,36
920.388,61
920.63,41
920.871,35
921.113,34
921.355,43
921.597,44
921.839,33
922.081,46
922.322,35
922.564,49
922.806,40
923.048,33
923.29,31
923.531,40
923.773,37
924.015,35
924.257,28
924.499,40
924.741,49
924.982,46
925.224,38
925.466,38
925.708,36
925.95,48
926.191,51
926.433,47
926.675,33
926.917,31
927.159,39
927.401,38
927.642,42
927.884,46
928.126,34
928.368,47
928.61,42
928.851,38
929.093,50
929.335,47
929.577,54
929.819,46
930.061,45
930.302,33
930.544,46
930.786,47
931.028,49
931.27,37
931.511,40
931.753,53
931.995,38
932.237,34
932.479,38
932.721,34
932.962,38
933.204,45
933.446,37
933.688,43
933.93,31
934.171,39
934.413,49
934.655,42
934.897,44
935.139,40
935.38,38
935.622,39
935.864,26
936.106,27
936.348,38
936.59,47
936.831,40
937.073,46
937.315,42
937.557,40
937.799,28
938.04,41
938.282,37
938.524,41
938.766,43
939.008,29
939.25,45
939.491,35
939.733,39
939.975,37
940.217,43
940.459,31
940.7,44
940.942,36
941.184,35
941.426,39
941.668,42
941.91,48
942.151,42
942.393,41
942.635,41
942.877,43
943.119,38
943.36,41
943.602,51
943.844,34
944.086,38
944.328,29
944.57,36
944.811,32
945.053,51
945.295,40
945.537,40
945.779,35
946.02,45
946.262,54
946.504,37
946.746,39
946.988,48
947.23,40
947.471,46
947.713,39
947.955,32
948.197,30
948.439,51
948.68,31
948.922,31
949.164,43
949.406,37
949.648,44
949.89,31
950.131,40
950.373,35
950.615,45
950.857,37
951.099,41
951.34,37
951.582,32
951.824,28
952.066,33
952.308,34
952.549,34
952.791,35
953.033,39
953.275,30
953.517,41
953.759,42
954,32
954.242,40
954.484,33
954.726,42
954.968,47
955.209,36
955.451,36
955.693,41
955.935,44
956.177,31
956.419,33
956.66,46
956.902,31
957.144,33
957.386,34
957.628,43
957.87,33
958.111,38
958.353,37
958.595,32
958.837,39
959.079,42
959.32,32
959.562,32
959.804,35
960.046,38
960.288,27
960.529,42
960.771,45
961.013,38
961.255,41
961.497,47
961.739,39
961.98,39
962.222,31
962.464,44
962.706,47
962.948,34
963.189,37
963.431,38
963.673,35
963.915,44
964.157,30
964.399,30
964.64,35
964.882,38
965.124,40
965.366,41
965.608,35
965.849,39
966.091,37
966.333,35
966.575,46
966.817,37
967.059,28
967.3,44
967.542,33
967.784,26
968.026,28
968.268,32
968.509,37
968.751,40
968.993,37
969.235,35
969.477,44
969.719,24
969.96,33
970.202,35
970.444,44
970.686,38
970.928,44
971.169,33
971.411,31
971.653,31
971.895,37
972.137,38
972.378,28
972.62,42
972.862,36
973.104,41
973.346,42
973.588,34
973.829,36
974.071,45
974.313,40
974.555,29
974.797,41
975.039,42
975.28,24
975.522,33
975.764,52
976.006,23
976.248,37
976.489,36
976.731,38
976.973,43
977.215,24
977.457,34
977.698,41
977.94,39
978.182,31
978.424,41
978.666,36
978.908,30
979.149,40
979.391,40
979.633,31
979.875,30
980.117,29
980.358,31
980.6,28
980.842,40
981.084,29
981.326,46
981.568,35
981.809,26
982.051,34
982.293,36
982.535,49
982.777,37
983.018,22
983.26,47
983.502,37
983.744,33
983.986,32
984.228,38
984.469,38
984.711,32
984.953,38
985.195,29
985.437,46
985.678,40
985.92,29
986.162,34
986.404,41
986.646,34
986.888,32
987.129,44
987.371,42
987.613,34
987.855,33
988.097,28
988.338,37
988.58,38
988.822,27
989.064,34
989.306,30
989.547,31
989.789,46
990.031,38
990.273,26
990.515,39
990.757,28
990.998,31
991.24,39
991.482,27
991.724,32
991.966,26
992.208,37
992.449,42
992.691,29
992.933,27
993.175,29
993.417,39
993.658,25
993.9,28
994.142,29
994.384,31
994.626,32
994.867,36
995.109,33
995.351,23
995.593,19
995.835,40
996.077,31
996.318,35
996.56,31
996.802,26
997.044,37
997.286,15
997.527,33
997.769,28
998.011,29
998.253,40
998.495,37
998.737,35
998.978,25
999.22,24
999.462,28
999.704,41
999.946,26
1000.19,34
1000.43,34
1000.67,22
1000.91,34
1001.15,33
1001.4,24
1001.64,39
1001.88,29
1002.12,26
1002.36,30
1002.61,37
1002.85,38
1003.09,48
1003.33,34
1003.57,31
1003.81,40
1004.06,37
1004.3,36
1004.54,43
1004.78,29
1005.02,32
1005.27,35
1005.51,33
1005.75,41
1005.99,42
1006.23,29
1006.47,29
1006.72,35
1006.96,40
1007.2,30
1007.44,40
1007.68,31
1007.93,34
1008.17,27
1008.41,42
1008.65,28
1008.89,27
1009.13,34
1009.38,41
1009.62,31
1009.86,44
1010.1,37
1010.34,39
1010.59,31
1010.83,28
1011.07,30
1011.31,33
1011.55,30
1011.79,39
1012.04,37
1012.28,33
1012.52,23
1012.76,24
1013,35
1013.25,30
1013.49,37
1013.73,34
1013.97,35
1014.21,41
1014.45,29
1014.7,25
1014.94,37
1015.18,29
1015.42,26
1015.66,36
1015.91,25
1016.15,27
1016.39,30
1016.63,30
1016.87,37
1017.11,30
1017.36,33
1017.6,39
1017.84,40
1018.08,29
1018.32,30
1018.57,24
1018.81,40
1019.05,24
1019.29,31
1019.53,40
1019.77,36
1020.02,30
1020.26,33
1020.5,40
1020.74,25
1020.98,31
1021.23,33
1021.47,31
1021.71,34
1021.95,29
1022.19,28
1022.43,35
1022.68,31
1022.92,41
1023.16,37
1023.4,21
1023.64,24
1023.89,37
1024.13,25
1024.37,37
1024.61,25
1024.85,46
1025.09,37
1025.34,28
1025.58,37
1025.82,32
1026.06,31
1026.3,16
1026.55,45
1026.79,41
1027.03,26
1027.27,32
1027.51,37
1027.75,44
1028,37
1028.24,34
1028.48,32
1028.72,20
1028.96,35
1029.21,21
1029.45,35
1029.69,38
1029.93,28
1030.17,43
1030.41,37
1030.66,28
1030.9,32
1031.14,41
1031.38,33
1031.62,30
1031.87,21
1032.11,32
1032.35,38
1032.59,40
1032.83,26
1033.07,38
1033.32,29
1033.56,36
1033.8,39
1034.04,45
1034.28,31
1034.53,42
1034.77,31
1035.01,26
1035.25,35
1035.49,36
1035.73,30
1035.98,31
1036.22,25
1036.46,28
1036.7,35
1036.94,34
1037.19,30
1037.43,32
1037.67,25
1037.91,26
1038.15,31
1038.39,48
1038.64,27
1038.88,28
1039.12,31
1039.36,30
1039.6,24
1039.85,29
1040.09,31
1040.33,35
1040.57,38
1040.81,39
1041.05,34
1041.3,31
1041.54,19
1041.78,35
1042.02,26
1042.26,35
1042.51,29
1042.75,26
1042.99,22
1043.23,29
1043.47,32
1043.71,35
1043.96,28
1044.2,39
1044.44,25
1044.68,36
1044.92,25
1045.17,38
1045.41,24
1045.65,24
1045.89,23
1046.13,39
1046.37,37
1046.62,38
1046.86,35
1047.1,30
1047.34,31
1047.58,37
1047.83,40
1048.07,27
1048.31,37
1048.55,22
1048.79,28
1049.03,31
1049.28,25
1049.52,34
1049.76,23
1050,25
1050.24,29
1050.49,25
1050.73,28
1050.97,23
1051.21,36
1051.45,30
1051.69,29
1051.94,29
1052.18,35
1052.42,16
1052.66,29
1052.9,32
1053.15,27
1053.39,23
1053.63,27
1053.87,31
1054.11,31
1054.35,39
1054.6,29
1054.84,34
1055.08,28
1055.32,31
1055.56,34
1055.81,36
1056.05,36
1056.29,36
1056.53,42
1056.77,30
1057.01,24
1057.26,46
1057.5,28
1057.74,34
1057.98,31
1058.22,30
1058.47,29
1058.71,30
1058.95,37
1059.19,34
1059.43,38
1059.67,27
1059.92,37
1060.16,25
1060.4,32
1060.64,32
1060.88,30
1061.13,27
1061.37,13
1061.61,38
1061.85,30
1062.09,24
1062.33,38
1062.58,35
1062.82,34
1063.06,40
1063.3,30
1063.54,29
1063.79,35
1064.03,28
1064.27,27
1064.51,37
1064.75,41
1064.99,26
1065.24,26
1065.48,36
1065.72,30
1065.96,29
1066.2,30
1066.45,33
1066.69,36
1066.93,40
1067.17,27
1067.41,31
1067.65,42
1067.9,21
1068.14,25
1068.38,28
1068.62,34
1068.86,31
1069.11,33
1069.35,32
1069.59,36
1069.83,21
1070.07,32
1070.31,34
1070.56,20
1070.8,27
1071.04,35
1071.28,27
1071.52,29
1071.77,27
1072.01,32
1072.25,34
1072.49,28
1072.73,30
1072.97,40
1073.22,32
1073.46,31
1073.7,30
1073.94,36
1074.18,29
1074.43,32
1074.67,33
1074.91,31
1075.15,31
1075.39,33
1075.63,34
1075.88,37
1076.12,35
1076.36,26
1076.6,19
1076.84,27
1077.09,27
1077.33,31
1077.57,36
1077.81,37
1078.05,35
1078.29,31
1078.54,25
1078.78,30
1079.02,28
1079.26,27
1079.5,21
1079.75,31
1079.99,27
1080.23,28
1080.47,30
1080.71,31
1080.95,32
1081.2,32
1081.44,32
1081.68,24
1081.92,27
1082.16,25
1082.41,36
1082.65,30
1082.89,24
1083.13,38
1083.37,19
1083.61,30
1083.86,18
1084.1,35
1084.34,27
1084.58,26
1084.82,26
1085.07,33
1085.31,34
1085.55,27
1085.79,26
1086.03,26
1086.27,33
1086.52,32
1086.76,29
1087,24
1087.24,33
1087.48,26
1087.73,23
1087.97,23
1088.21,15
1088.45,30
1088.69,29
1088.93,28
1089.18,37
1089.42,22
1089.66,31
1089.9,18
1090.14,28
1090.39,35
1090.63,26
1090.87,28
1091.11,25
1091.35,23
1091.59,27
1091.84,25
1092.08,23
1092.32,26
1092.56,24
1092.8,32
1093.05,25
1093.29,33
1093.53,26
1093.77,26
1094.01,25
1094.25,22
1094.5,30
1094.74,44
1094.98,31
1095.22,23
1095.46,17
1095.71,41
1095.95,29
1096.19,24
1096.43,37
1096.67,35
1096.91,28
1097.16,28
1097.4,29
1097.64,25
1097.88,29
1098.12,27
1098.37,37
1098.61,38
1098.85,27
1099.09,31
1099.33,28
1099.57,23
1099.82,27
1100.06,34
1100.3,34
1100.54,37
1100.78,30
1101.03,31
1101.27,33
1101.51,33
1101.75,30
1101.99,31
1102.23,32
1102.48,26
1102.72,19
1102.96,33
1103.2,29
1103.44,27
1103.69,35
1103.93,25
1104.17,28
1104.41,35
1104.65,28
1104.89,36
1105.14,35
1105.38,34
1105.62,25
1105.86,31
1106.1,23
1106.35,25
1106.59,28
1106.83,35
1107.07,41
1107.31,24
1107.55,29
1107.8,33
1108.04,33
1108.28,24
1108.52,24
1108.76,26
1109.01,21
1109.25,33
1109.49,26
1109.73,30
1109.97,24
1110.21,28
1110.46,22
1110.7,26
1110.94,30
1111.18,19
1111.42,24
1111.67,36
1111.91,28
1112.15,27
1112.39,34
1112.63,23
1112.87,21
1113.12,26
1113.36,33
1113.6,27
1113.84,28
1114.08,27
1114.33,23
1114.57,27
1114.81,29
1115.05,21
1115.29,23
1115.53,26
1115.78,26
1116.02,21
1116.26,23
1116.5,34
1116.74,22
1116.99,31
1117.23,23
1117.47,30
1117.71,29
1117.95,25
1118.19,28
1118.44,29
1118.68,21
1118.92,34
1119.16,20
1119.4,19
1119.65,23
1119.89,26
1120.13,27
1120.37,35
1120.61,27
1120.85,29
1121.1,24
1121.34,32
1121.58,28
1121.82,18
1122.06,23
1122.31,26
1122.55,19
1122.79,24
1123.03,31
1123.27,24
1123.51,21
1123.76,27
1124,38
1124.24,18
1124.48,31
1124.72,32
1124.96,26
1125.21,22
1125.45,22
1125.69,23
1125.93,23
1126.17,23
1126.42,31
1126.66,37
1126.9,30
1127.14,20
1127.38,35
1127.62,14
1127.87,23
1128.11,24
1128.35,26
1128.59,30
1128.83,36
1129.08,13
1129.32,28
1129.56,31
1129.8,32
1130.04,21
1130.29,34
1130.53,25
1130.77,24
1131.01,25
1131.25,17
1131.49,23
1131.74,21
1131.98,26
1132.22,31
1132.46,23
1132.7,27
1132.94,23
1133.19,24
1133.43,27
1133.67,27
1133.91,20
1134.15,17
1134.4,18
1134.64,25
1134.88,22
1135.12,33
1135.36,23
1135.6,30
1135.85,24
1136.09,26
1136.33,16
1136.57,22
1136.81,24
1137.06,39
1137.3,32
1137.54,14
1137.78,24
1138.02,18
1138.27,18
1138.51,25
1138.75,20
1138.99,19
1139.23,23
1139.47,24
1139.72,23
1139.96,25
1140.2,25
1140.44,24
1140.68,20
1140.92,28
1141.17,30
1141.41,29
1141.65,28
1141.89,24
1142.13,23
1142.38,37
1142.62,19
1142.86,21
1143.1,20
1143.34,29
1143.58,29
1143.83,25
1144.07,36
1144.31,26
1144.55,24
1144.79,25
1145.04,22
1145.28,27
1145.52,19
1145.76,26
1146,32
1146.24,24
1146.49,30
1146.73,23
1146.97,22
1147.21,32
1147.45,22
1147.7,29
1147.94,20
1148.18,21
1148.42,27
1148.66,19
1148.9,18
1149.15,35
1149.39,21
1149.63,22
1149.87,21
1150.11,24
1150.36,27
1150.6,22
1150.84,26
1151.08,31
1151.32,22
1151.56,27
1151.81,15
1152.05,15
1152.29,18
1152.53,23
1152.77,15
1153.02,29
1153.26,28
1153.5,20
1153.74,32
1153.98,12
1154.22,24
1154.47,28
1154.71,29
1154.95,22
1155.19,16
1155.43,24
1155.68,26
1155.92,21
1156.16,22
1156.4,14
1156.64,16
1156.88,17
1157.13,20
1157.37,26
1157.61,25
1157.85,18
1158.09,20
1158.34,22
1158.58,27
1158.82,28
1159.06,25
1159.3,18
1159.54,26
1159.79,22
1160.03,26
1160.27,26
1160.51,18
1160.75,19
1161,20
1161.24,28
1161.48,26
1161.72,17
1161.96,24
1162.2,12
1162.45,25
1162.69,26
1162.93,25
1163.17,21
1163.41,18
1163.66,33
1163.9,22
1164.14,20
1164.38,19
1164.62,15
1164.86,21
1165.11,23
1165.35,20
1165.59,25
1165.83,24
1166.07,22
1166.32,16
1166.56,26
1166.8,27
1167.04,13
1167.28,22
1167.52,14
1167.77,21
1168.01,17
1168.25,31
1168.49,19
1168.73,22
1168.98,23
1169.22,24
1169.46,19
1169.7,26
1169.94,17
1170.18,24
1170.43,29
1170.67,21
1170.91,23
1171.15,20
1171.39,15
1171.64,13
1171.88,22
1172.12,21
1172.36,21
1172.6,22
1172.84,18
1173.09,25
1173.33,14
1173.57,15
1173.81,23
1174.05,19
1174.3,21
1174.54,23
1174.78,24
1175.02,21
1175.26,13
1175.5,18
1175.75,23
1175.99,18
1176.23,15
1176.47,32
1176.71,20
1176.96,17
1177.2,17
1177.44,17
1177.68,13
1177.92,17
1178.16,13
1178.41,21
1178.65,27
1178.89,23
1179.13,24
1179.37,27
1179.62,17
1179.86,22
1180.1,30
1180.34,21
1180.58,22
1180.82,13
1181.07,22
1181.31,32
1181.55,18
1181.79,32
1182.03,17
1182.28,16
1182.52,25
1182.76,22
1183,16
1183.24,24
1183.48,20
1183.73,19
1183.97,19
1184.21,17
1184.45,17
1184.69,27
1184.94,17
1185.18,21
1185.42,17
1185.66,17
1185.9,12
1186.14,19
1186.39,21
1186.63,14
1186.87,19
1187.11,19
1187.35,18
1187.6,17
1187.84,15
1188.08,17
1188.32,16
1188.56,22
1188.8,21
1189.05,25
1189.29,17
1189.53,25
1189.77,12
1190.01,23
1190.26,25
1190.5,23
1190.74,24
1190.98,23
1191.22,20
1191.46,21
1191.71,16
1191.95,25
1192.19,18
1192.43,20
1192.67,25
1192.92,18
1193.16,19
1193.4,19
1193.64,22
1193.88,12
1194.12,18
1194.37,20
1194.61,14
1194.85,15
1195.09,17
1195.33,21
1195.58,19
1195.82,23
1196.06,24
1196.3,16
1196.54,11
1196.78,10
1197.03,22
1197.27,24
1197.51,22
1197.75,15
1197.99,18
1198.24,26
1198.48,17
1198.72,25
1198.96,18
1199.2,17
1199.44,23
1199.69,22
1199.93,12
1200.17,22
1200.41,13
1200.65,15
1200.9,9
1201.14,15
1201.38,17
1201.62,18
1201.86,12
1202.1,15
1202.35,15
1202.59,20
1202.83,17
1203.07,19
1203.31,19
1203.56,21
1203.8,12
1204.04,12
1204.28,14
1204.52,13
1204.76,16
1205.01,12
1205.25,26
1205.49,15
1205.73,19
1205.97,13
1206.22,16
1206.46,16
1206.7,13
1206.94,19
1207.18,22
1207.42,15
1207.67,17
1207.91,14
1208.15,19
1208.39,21
1208.63,26
1208.88,24
1209.12,17
1209.36,20
1209.6,18
1209.84,23
1210.08,18
1210.33,12
1210.57,18
1210.81,21
1211.05,23
1211.29,19
1211.54,19
1211.78,16
1212.02,17
1212.26,20
1212.5,17
1212.74,12
1212.99,14
1213.23,16
1213.47,18
1213.71,14
1213.95,15
1214.2,16
1214.44,22
1214.68,27
1214.92,18
1215.16,14
1215.4,18
1215.65,10
1215.89,16
1216.13,15
1216.37,21
1216.61,16
1216.86,12
1217.1,23
1217.34,22
1217.58,12
1217.82,20
1218.06,11
1218.31,20
1218.55,12
1218.79,18
1219.03,15
1219.27,19
1219.52,28
1219.76,20
1220,14
1220.24,14
1220.48,17
1220.72,23
1220.97,7
1221.21,28
1221.45,17
1221.69,17
1221.93,21
1222.18,17
1222.42,18
1222.66,12
1222.9,21
1223.14,13
1223.38,11
1223.63,25
1223.87,18
1224.11,13
1224.35,17
1224.59,15
1224.84,12
1225.08,17
1225.32,18
1225.56,17
1225.8,13
1226.04,18
1226.29,13
1226.53,21
1226.77,15
1227.01,18
1227.25,15
1227.5,13
1227.74,20
1227.98,12
1228.22,16
1228.46,16
1228.7,19
1228.95,12
1229.19,11
1229.43,9
1229.67,15
1229.91,20
1230.16,11
1230.4,11
1230.64,16
1230.88,21
1231.12,18
1231.36,15
1231.61,19
1231.85,26
1232.09,18
1232.33,20
1232.57,21
1232.82,7
1233.06,19
1233.3,19
1233.54,13
1233.78,16
1234.02,14
1234.27,20
1234.51,16
1234.75,16
1234.99,12
1235.23,16
1235.48,26
1235.72,15
1235.96,17
1236.2,13
1236.44,17
1236.68,22
1236.93,23
1237.17,14
1237.41,21
1237.65,22
1237.89,14
1238.14,18
1238.38,13
1238.62,14
1238.86,19
1239.1,26
1239.34,11
1239.59,23
1239.83,15
1240.07,20
1240.31,11
1240.55,12
1240.8,14
1241.04,19
1241.28,16
1241.52,16
1241.76,13
1242,16
1242.25,13
1242.49,21
1242.73,10
1242.97,20
1243.21,15
1243.46,13
1243.7,15
1243.94,12
1244.18,14
1244.42,17
1244.66,9
1244.91,7
1245.15,21
1245.39,19
1245.63,14
1245.87,12
1246.12,20
1246.36,12
1246.6,16
1246.84,18
1247.08,31
1247.32,18
1247.57,18
1247.81,14
1248.05,17
1248.29,15
1248.53,12
1248.78,11
1249.02,23
1249.26,18
1249.5,20
1249.74,8
1249.98,15
1250.23,23
1250.47,18
1250.71,25
1250.95,18
1251.19,13
1251.44,14
1251.68,16
1251.92,14
1252.16,21
1252.4,25
1252.64,14
1252.89,15
1253.13,17
1253.37,17
1253.61,10
1253.85,14
1254.1,13
1254.34,10
1254.58,14
1254.82,16
1255.06,17
1255.3,15
1255.55,16
1255.79,18
1256.03,9
1256.27,12
1256.51,16
1256.76,15
1257,19
1257.24,16
1257.48,17
1257.72,12
1257.96,16
1258.21,19
1258.45,25
1258.69,8
1258.93,15
1259.17,14
1259.42,4
1259.66,12
1259.9,13
1260.14,16
1260.38,22
1260.62,19
1260.87,13
1261.11,24
1261.35,12
1261.59,21
1261.83,20
1262.08,19
1262.32,14
1262.56,14
1262.8,14
1263.04,16
1263.28,15
1263.53,13
1263.77,17
1264.01,19
1264.25,14
1264.49,22
1264.74,17
1264.98,13
1265.22,14
1265.46,20
1265.7,13
1265.94,19
1266.19,10
1266.43,15
1266.67,15
1266.91,16
1267.15,15
1267.4,14
1267.64,11
1267.88,19
1268.12,14
1268.36,13
1268.6,28
1268.85,13
1269.09,13
1269.33,17
1269.57,16
1269.81,13
1270.06,16
1270.3,13
1270.54,14
1270.78,10
1271.02,17
1271.26,17
1271.51,18
1271.75,17
1271.99,20
1272.23,16
1272.47,12
1272.72,15
1272.96,15
1273.2,20
1273.44,12
1273.68,20
1273.92,14
1274.17,13
1274.41,13
1274.65,12
1274.89,12
1275.13,16
1275.38,10
1275.62,17
1275.86,9
1276.1,15
1276.34,17
1276.58,16
1276.83,10
1277.07,15
1277.31,18
1277.55,18
1277.79,23
1278.04,14
1278.28,14
1278.52,12
1278.76,14
1279,20
1279.24,22
1279.49,12
1279.73,18
1279.97,19
1280.21,14
1280.45,14
1280.7,22
1280.94,17
1281.18,13
1281.42,17
1281.66,9
1281.9,14
1282.15,11
1282.39,10
1282.63,13
1282.87,11
1283.11,9
1283.36,14
1283.6,14
1283.84,22
1284.08,17
1284.32,19
1284.56,25
1284.81,17
1285.05,6
1285.29,14
1285.53,9
1285.77,14
1286.02,13
1286.26,19
1286.5,16
1286.74,10
1286.98,17
1287.22,8
1287.47,18
1287.71,25
1287.95,15
1288.19,15
1288.43,13
1288.68,12
1288.92,10
1289.16,13
1289.4,10
1289.64,18
1289.88,16
1290.13,11
1290.37,15
1290.61,24
1290.85,16
1291.09,12
1291.34,15
1291.58,15
1291.82,19
1292.06,15
1292.3,17
1292.54,14
1292.79,10
1293.03,17
1293.27,17
1293.51,18
1293.75,10
1294,17
1294.24,11
1294.48,20
1294.72,17
1294.96,24
1295.2,11
1295.45,13
1295.69,14
1295.93,21
1296.17,13
1296.41,18
1296.66,11
1296.9,17
1297.14,11
1297.38,16
1297.62,15
1297.86,13
1298.11,18
1298.35,12
1298.59,19
1298.83,14
1299.07,10
1299.32,8
1299.56,11
1299.8,7
1300.04,11
1300.28,14
1300.52,8
1300.77,15
1301.01,18
1301.25,15
1301.49,15
1301.73,11
1301.98,9
1302.22,18
1302.46,11
1302.7,12
1302.94,15
1303.18,14
1303.43,10
1303.67,7
1303.91,17
1304.15,16
1304.39,14
1304.64,12
1304.88,21
1305.12,18
1305.36,16
1305.6,14
1305.84,12
1306.09,17
1306.33,12
1306.57,14
1306.81,14
1307.05,18
1307.3,13
1307.54,18
1307.78,18
1308.02,14
1308.26,21
1308.5,10
1308.75,7
1308.99,13
1309.23,7
1309.47,11
1309.71,12
1309.96,15
1310.2,11
1310.44,16
1310.68,15
1310.92,16
1311.16,11
1311.41,16
1311.65,11
1311.89,16
1312.13,12
1312.37,13
1312.61,18
1312.86,14
1313.1,17
1313.34,15
1313.58,14
1313.82,14
1314.07,13
1314.31,11
1314.55,13
1314.79,20
1315.03,10
1315.28,14
1315.52,11
1315.76,9
1316,10
1316.24,18
1316.48,15
1316.73,20
1316.97,16
1317.21,15
1317.45,13
1317.69,11
1317.93,11
1318.18,14
1318.42,16
1318.66,10
1318.9,13
1319.14,17
1319.39,12
1319.63,9
1319.87,12
1320.11,16
1320.35,13
1320.59,11
1320.84,11
1321.08,16
1321.32,11
1321.56,12
1321.8,12
1322.05,12
1322.29,8
1322.53,13
1322.77,9
1323.01,22
1323.26,14
1323.5,14
1323.74,16
1323.98,12
1324.22,15
1324.46,10
1324.71,11
1324.95,7
1325.19,9
1325.43,11
1325.67,11
1325.91,15
1326.16,10
1326.4,11
1326.64,13
1326.88,13
1327.12,13
1327.37,8
1327.61,14
1327.85,13
1328.09,20
1328.33,6
1328.57,7
1328.82,8
1329.06,9
1329.3,14
1329.54,11
1329.78,21
1330.03,11
1330.27,18
1330.51,12
1330.75,11
1330.99,9
1331.23,9
1331.48,9
1331.72,16
1331.96,14
1332.2,9
1332.44,9
1332.69,14
1332.93,10
1333.17,17
1333.41,10
1333.65,6
1333.89,8
1334.14,22
1334.38,14
1334.62,11
1334.86,13
1335.1,10
1335.35,9
1335.59,13
1335.83,15
1336.07,12
1336.31,5
1336.55,8
1336.8,18
1337.04,9
1337.28,16
1337.52,9
1337.76,9
1338.01,18
1338.25,17
1338.49,18
1338.73,10
1338.97,8
1339.21,10
1339.46,16
1339.7,16
1339.94,14
1340.18,13
1340.42,11
1340.67,15
1340.91,14
1341.15,12
1341.39,11
1341.63,8
1341.87,16
1342.12,14
1342.36,9
1342.6,6
1342.84,17
1343.08,12
1343.33,21
1343.57,12
1343.81,14
1344.05,16
1344.29,14
1344.53,16
1344.78,11
1345.02,17
1345.26,8
1345.5,5
1345.74,12
1345.99,9
1346.23,11
1346.47,15
1346.71,11
1346.95,13
1347.19,11
1347.44,14
1347.68,12
1347.92,12
1348.16,11
1348.4,16
1348.65,12
1348.89,15
1349.13,17
1349.37,7
1349.61,16
1349.85,19
1350.1,17
1350.34,10
1350.58,14
1350.82,13
1351.06,8
1351.31,8
1351.55,10
1351.79,16
1352.03,9
1352.27,11
1352.51,14
1352.76,15
1353,13
1353.24,12
1353.48,17
1353.72,15
1353.97,12
1354.21,9
1354.45,20
1354.69,12
1354.93,14
1355.17,12
1355.42,15
1355.66,11
1355.9,9
1356.14,14
1356.38,10
1356.63,11
1356.87,12
1357.11,13
1357.35,9
1357.59,14
1357.83,9
1358.08,10
1358.32,6
1358.56,13
1358.8,13
1359.04,19
1359.29,15
1359.53,16
1359.77,11
1360.01,14
1360.25,10
1360.49,14
1360.74,9
1360.98,17
1361.22,18
1361.46,16
1361.7,15
1361.95,7
1362.19,16
1362.43,15
1362.67,15
1362.91,14
1363.15,13
1363.4,8
1363.64,14
1363.88,15
1364.12,10
1364.36,12
1364.61,10
1364.85,16
1365.09,13
1365.33,11
1365.57,13
1365.81,15
1366.06,6
1366.3,16
1366.54,13
1366.78,12
1367.02,21
1367.27,14
1367.51,10
1367.75,14
1367.99,10
1368.23,14
1368.47,13
1368.72,9
1368.96,14
1369.2,12
1369.44,9
1369.68,13
1369.93,17
1370.17,13
1370.41,13
1370.65,14
1370.89,14
1371.13,16
1371.38,11
1371.62,15
1371.86,16
1372.1,10
1372.34,16
1372.59,11
1372.83,13
1373.07,16
1373.31,10
1373.55,14
1373.79,7
1374.04,13
1374.28,7
1374.52,13
1374.76,11
1375,15
1375.25,14
1375.49,12
1375.73,10
1375.97,11
1376.21,9
1376.45,17
1376.7,20
1376.94,11
1377.18,18
1377.42,13
1377.66,20
1377.91,9
1378.15,14
1378.39,14
1378.63,13
1378.87,10
1379.11,13
1379.36,10
1379.6,12
1379.84,15
1380.08,12
1380.32,10
1380.57,13
1380.81,13
1381.05,10
1381.29,11
1381.53,14
1381.77,11
1382.02,14
1382.26,14
1382.5,8
1382.74,15
1382.98,12
1383.23,12
1383.47,8
1383.71,10
1383.95,11
1384.19,14
1384.43,8
1384.68,10
1384.92,10
1385.16,17
1385.4,11
1385.64,15
1385.89,20
1386.13,9
1386.37,12
1386.61,13
1386.85,13
1387.09,13
1387.34,11
1387.58,14
1387.82,8
1388.06,8
1388.3,10
1388.55,15
1388.79,9
1389.03,8
1389.27,14
1389.51,13
1389.75,13
1390,16
1390.24,13
1390.48,15
1390.72,14
1390.96,6
1391.21,13
1391.45,14
1391.69,6
1391.93,7
1392.17,19
1392.41,17
1392.66,15
1392.9,14
1393.14,17
1393.38,11
1393.62,12
1393.87,18
1394.11,14
1394.35,13
1394.59,7
1394.83,11
1395.07,10
1395.32,15
1395.56,15
1395.8,9
1396.04,8
1396.28,15
1396.53,18
1396.77,10
1397.01,6
1397.25,7
1397.49,7
1397.73,10
1397.98,10
1398.22,10
1398.46,11
1398.7,16
1398.94,17
1399.19,19
1399.43,14
1399.67,11
1399.91,11
1400.15,9
1400.39,12
1400.64,16
1400.88,20
1401.12,10
1401.36,6
1401.6,16
1401.85,11
1402.09,9
1402.33,7
1402.57,11
1402.81,11
1403.05,13
1403.3,12
1403.54,15
1403.78,9
1404.02,7
1404.26,12
1404.51,9
1404.75,14
1404.99,10
1405.23,10
1405.47,15
1405.71,14
1405.96,9
1406.2,10
1406.44,11
1406.68,11
1406.92,13
1407.17,14
1407.41,12
1407.65,13
1407.89,14
1408.13,9
1408.37,11
1408.62,12
1408.86,13
1409.1,17
1409.34,16
1409.58,16
1409.83,12
1410.07,10
1410.31,7
1410.55,12
1410.79,15
1411.03,19
1411.28,10
1411.52,7
1411.76,11
1412,11
1412.24,20
1412.49,15
1412.73,14
1412.97,16
1413.21,15
1413.45,11
1413.69,7
1413.94,13
1414.18,10
1414.42,12
1414.66,13
1414.9,16
1415.15,13
1415.39,10
1415.63,15
1415.87,12
1416.11,11
1416.35,12
1416.6,10
1416.84,10
1417.08,10
1417.32,11
1417.56,5
1417.81,12
1418.05,11
1418.29,11
1418.53,13
1418.77,17
1419.01,5
1419.26,5
1419.5,12
1419.74,13
1419.98,7
1420.22,6
1420.47,20
1420.71,12
1420.95,13
1421.19,12
1421.43,10
1421.67,6
1421.92,15
1422.16,7
1422.4,19
1422.64,8
1422.88,11
1423.13,10
1423.37,12
1423.61,12
1423.85,13
1424.09,10
1424.33,15
1424.58,14
1424.82,3
1425.06,9
1425.3,9
1425.54,12
1425.79,12
1426.03,7
1426.27,11
1426.51,10
1426.75,14
1426.99,12
1427.24,13
1427.48,10
1427.72,11
1427.96,10
1428.2,7
1428.45,10
1428.69,12
1428.93,11
1429.17,13
1429.41,11
1429.65,8
1429.9,8
1430.14,10
1430.38,11
1430.62,8
1430.86,11
1431.11,12
1431.35,6
1431.59,10
1431.83,5
1432.07,13
1432.31,10
1432.56,13
1432.8,11
1433.04,11
1433.28,9
1433.52,9
1433.77,11
1434.01,6
1434.25,12
1434.49,9
1434.73,7
1434.97,10
1435.22,3
1435.46,15
1435.7,8
1435.94,9
1436.18,12
1436.43,17
1436.67,8
1436.91,10
1437.15,13
1437.39,10
1437.63,8
1437.88,9
1438.12,12
1438.36,10
1438.6,13
1438.84,4
1439.09,6
1439.33,6
1439.57,7
1439.81,10
1440.05,11
1440.29,11
1440.54,7
1440.78,9
1441.02,10
1441.26,13
1441.5,13
1441.75,10
1441.99,6
1442.23,10
1442.47,6
1442.71,15
1442.95,15
1443.2,8
1443.44,9
1443.68,6
1443.92,5
1444.16,17
1444.41,9
1444.65,8
1444.89,9
1445.13,10
1445.37,12
1445.61,8
1445.86,12
1446.1,18
1446.34,9
1446.58,8
1446.82,10
1447.07,11
1447.31,14
1447.55,14
1447.79,5
1448.03,11
1448.27,4
1448.52,12
1448.76,4
1449,12
1449.24,14
1449.48,9
1449.73,16
1449.97,11
1450.21,10
1450.45,6
1450.69,9
1450.93,11
1451.18,13
1451.42,9
1451.66,15
1451.9,8
1452.14,5
1452.39,5
1452.63,14
1452.87,3
1453.11,8
1453.35,9
1453.59,9
1453.84,11
1454.08,11
1454.32,7
1454.56,10
1454.8,6
1455.05,14
1455.29,5
1455.53,11
1455.77,15
1456.01,12
1456.25,7
1456.5,12
1456.74,13
1456.98,6
1457.22,5
1457.46,14
1457.71,9
1457.95,11
1458.19,11
1458.43,9
1458.67,7
1458.91,12
1459.16,10
1459.4,15
1459.64,6
1459.88,14
1460.12,14
1460.37,3
1460.61,12
1460.85,9
1461.09,10
1461.33,12
1461.57,15
1461.82,14
1462.06,5
1462.3,10
1462.54,10
1462.78,6
1463.03,8
1463.27,7
1463.51,11
1463.75,11
1463.99,20
1464.23,12
1464.48,7
1464.72,8
1464.96,14
1465.2,6
1465.44,8
1465.69,10
1465.93,8
1466.17,4
1466.41,10
1466.65,11
1466.89,12
1467.14,13
1467.38,8
1467.62,12
1467.86,14
1468.1,11
1468.35,9
1468.59,9
1468.83,10
1469.07,9
1469.31,11
1469.55,6
1469.8,8
1470.04,8
1470.28,9
1470.52,10
1470.76,19
1471.01,8
1471.25,17
1471.49,11
1471.73,9
1471.97,15
1472.21,15
1472.46,7
1472.7,8
1472.94,10
1473.18,14
1473.42,5
1473.67,12
1473.91,12
1474.15,9
1474.39,11
1474.63,10
1474.87,9
1475.12,5
1475.36,10
1475.6,8
1475.84,9
1476.08,9
1476.33,9
1476.57,16
1476.81,10
1477.05,5
1477.29,10
1477.53,7
1477.78,12
1478.02,9
1478.26,11
1478.5,9
1478.74,10
1478.99,11
1479.23,7
1479.47,11
1479.71,8
1479.95,8
1480.19,12
1480.44,10
1480.68,8
1480.92,10
1481.16,12
1481.4,12
1481.65,9
1481.89,6
1482.13,14
1482.37,10
1482.61,16
1482.85,7
1483.1,7
1483.34,10
1483.58,11
1483.82,10
1484.06,9
1484.31,12
1484.55,8
1484.79,13
1485.03,4
1485.27,15
1485.51,10
1485.76,9
1486,9
1486.24,6
1486.48,5
1486.72,13
1486.97,7
1487.21,7
1487.45,3
1487.69,9
1487.93,10
1488.17,9
1488.42,7
1488.66,8
1488.9,6
1489.14,8
1489.38,14
1489.62,5
1489.87,3
1490.11,6
1490.35,6
1490.59,7
1490.83,4
1491.08,13
1491.32,12
1491.56,8
1491.8,12
1492.04,10
1492.29,9
1492.53,7
1492.77,12
1493.01,9
1493.25,8
1493.49,8
1493.74,7
1493.98,8
1494.22,11
1494.46,11
1494.7,9
1494.95,15
1495.19,11
1495.43,5
1495.67,13
1495.91,10
1496.15,12
1496.4,2
1496.64,0
1496.88,0
1497.12,0
1497.36,0
1497.6,0
1497.85,0
1498.09,0
1498.33,0
